Timestamp,Y Value,Y Quality,F3 Value,F3 Quality,F4 Value,F4 Quality,P7 Value,P7 Quality,FC6 Value,FC6 Quality,F7 Value,F7 Quality,F8 Value,F8 Quality,T7 Value,T7 Quality,P8 Value,P8 Quality,FC5 Value,FC5 Quality,AF4 Value,AF4 Quality,Unknown Value,Unknown Quality,T8 Value,T8 Quality,X Value,X Quality,O2 Value,O2 Quality,O1 Value,O1 Quality,AF3 Value,AF3 Quality
1387656265.628018,1,0,8067,0,8515,0,8347,0,8619,0,8674,0,7297,0,8998,0,9046,0,8349,0,8299,0,31,0,8984,0,-1,0,8577,0,7793,0,8048,0
1387656265.634421,1,0,8067,0,8515,0,8347,0,8619,0,8674,0,7297,0,8998,0,9046,0,8349,0,8299,0,31,0,8984,0,-1,0,8577,0,7793,0,8048,0
1387656265.642286,1,0,8070,0,8523,0,8342,0,8620,0,8670,0,7309,0,8993,0,9048,0,8346,0,8308,0,32,0,8984,0,-1,0,8588,0,7785,0,8048,0
1387656265.650286,1,0,8057,0,8514,0,8351,0,8618,0,8671,0,7302,0,8999,0,9045,0,8345,0,8304,0,33,0,8991,0,-1,0,8580,0,7796,0,8048,0
1387656265.658285,1,0,8063,0,8514,0,8341,0,8625,0,8673,0,7311,0,8998,0,9048,0,8343,0,8317,0,34,0,8989,0,-1,0,8577,0,7787,0,8045,0
1387656265.666291,1,0,8065,0,8513,0,8348,0,8622,0,8676,0,7303,0,8997,0,9044,0,8347,0,8297,0,35,0,8982,0,-1,0,8578,0,7794,0,8049,0
1387656265.674291,1,0,8061,0,8517,0,8350,0,8617,0,8673,0,7308,0,8995,0,9043,0,8345,0,8303,0,36,0,8989,0,-1,0,8589,0,7787,0,8055,0
1387656265.681282,1,0,8060,0,8514,0,8346,0,8616,0,8674,0,7304,0,9001,0,9046,0,8344,0,8306,0,37,0,8992,0,-1,0,8584,0,7789,0,8053,0
1387656265.689281,1,0,8068,0,8515,0,8341,0,8624,0,8675,0,7306,0,8999,0,9047,0,8345,0,8299,0,38,0,8988,0,-1,0,8582,0,7787,0,8049,0
1387656265.697281,1,0,8067,0,8513,0,8343,0,8627,0,8673,0,7313,0,8994,0,9042,0,8346,0,8298,0,39,0,8987,0,-1,0,8585,0,7790,0,8050,0
1387656265.705282,1,0,8064,0,8516,0,8345,0,8624,0,8673,0,7309,0,8994,0,9043,0,8347,0,8299,0,40,0,8986,0,-1,0,8582,0,7792,0,8048,0
1387656265.713282,1,0,8067,0,8521,0,8347,0,8624,0,8674,0,7311,0,8996,0,9049,0,8345,0,8305,0,41,0,8982,0,-1,0,8583,0,7784,0,8045,0
1387656265.72028,1,0,8063,0,8517,0,8350,0,8622,0,8674,0,7300,0,8999,0,9044,0,8344,0,8297,0,42,0,8984,0,-1,0,8572,0,7791,0,8048,0
1387656265.728281,1,0,8064,0,8521,0,8340,0,8621,0,8673,0,7310,0,8997,0,9046,0,8340,0,8307,0,43,0,8993,0,-1,0,8579,0,7788,0,8053,0
1387656265.736283,1,0,8062,0,8516,0,8348,0,8616,0,8675,0,7306,0,8997,0,9048,0,8345,0,8296,0,44,0,8995,0,-1,0,8585,0,7797,0,8053,0
1387656265.744282,1,0,8064,0,8513,0,8347,0,8626,0,8673,0,7315,0,8990,0,9050,0,8349,0,8310,0,45,0,8992,0,-1,0,8597,0,7782,0,8046,0
1387656265.752283,1,0,8064,0,8507,0,8351,0,8623,0,8672,0,7297,0,9001,0,9044,0,8350,0,8295,0,46,0,8987,0,-1,0,8578,0,7790,0,8047,0
1387656265.760278,1,0,8072,0,8522,0,8344,0,8618,0,8673,0,7306,0,9001,0,9048,0,8345,0,8302,0,47,0,8987,0,-1,0,8582,0,7787,0,8051,0
1387656265.767276,1,0,8066,0,8519,0,8350,0,8616,0,8680,0,7296,0,9000,0,9047,0,8347,0,8294,0,48,0,8985,0,-1,0,8579,0,7797,0,8055,0
1387656265.775275,1,0,8066,0,8516,0,8339,0,8629,0,8679,0,7307,0,8997,0,9049,0,8346,0,8305,0,49,0,8986,0,-1,0,8588,0,7784,0,8049,0
1387656265.783279,1,0,8062,0,8511,0,8347,0,8620,0,8673,0,7301,0,9005,0,9050,0,8346,0,8289,0,50,0,8988,0,-1,0,8580,0,7791,0,8047,0
1387656265.791276,1,0,8068,0,8519,0,8354,0,8619,0,8672,0,7304,0,8999,0,9056,0,8348,0,8296,0,51,0,8988,0,-1,0,8582,0,7781,0,8051,0
1387656265.799277,1,0,8064,0,8514,0,8355,0,8622,0,8676,0,7291,0,8999,0,9059,0,8351,0,8282,0,52,0,8986,0,-1,0,8582,0,7786,0,8055,0
1387656265.806274,1,0,8066,0,8519,0,8344,0,8624,0,8670,0,7290,0,9002,0,9055,0,8346,0,8284,0,53,0,8991,0,-1,0,8588,0,7785,0,8050,0
1387656265.814274,1,0,8064,0,8519,0,8350,0,8618,0,8669,0,7288,0,9001,0,9053,0,8348,0,8288,0,54,0,8993,0,-1,0,8580,0,7786,0,8048,0
1387656265.822275,1,0,8072,0,8517,0,8356,0,8620,0,8671,0,7287,0,8997,0,9060,0,8353,0,8283,0,55,0,8990,0,-1,0,8576,0,7780,0,8054,0
1387656265.830273,1,0,8079,0,8513,0,8352,0,8622,0,8668,0,7282,0,9002,0,9063,0,8350,0,8277,0,56,0,8990,0,-1,0,8582,0,7777,0,8059,0
1387656265.838276,1,0,8077,0,8514,0,8350,0,8618,0,8670,0,7277,0,9006,0,9057,0,8349,0,8274,0,57,0,8988,0,-1,0,8581,0,7782,0,8062,0
1387656265.845275,1,0,8073,0,8518,0,8350,0,8616,0,8672,0,7296,0,8994,0,9058,0,8350,0,8289,0,58,0,8983,0,-1,0,8585,0,7783,0,8058,0
1387656265.853278,1,0,8066,0,8514,0,8359,0,8614,0,8673,0,7291,0,8995,0,9059,0,8347,0,8280,0,59,0,8985,0,-1,0,8581,0,7792,0,8056,0
1387656265.861295,1,0,8067,0,8516,0,8353,0,8621,0,8673,0,7295,0,8997,0,9059,0,8343,0,8291,0,60,0,8995,0,-1,0,8588,0,7780,0,8057,0
1387656265.869278,1,0,8065,0,8507,0,8352,0,8621,0,8670,0,7290,0,9000,0,9056,0,8348,0,8280,0,61,0,8991,0,-1,0,8579,0,7792,0,8057,0
1387656265.877277,1,0,8059,0,8507,0,8353,0,8621,0,8670,0,7308,0,8998,0,9061,0,8342,0,8291,0,62,0,8986,0,-1,0,8588,0,7787,0,8056,0
1387656265.885276,1,0,8041,0,8494,0,8370,0,8610,0,8681,0,7302,0,9006,0,9053,0,8343,0,8280,0,63,0,8986,0,-1,0,8583,0,7797,0,8055,0
1387656265.892276,1,0,8040,0,8493,0,8357,0,8616,0,8679,0,7316,0,8996,0,9056,0,8345,0,8293,0,63,0,8990,0,-1,0,8587,0,7784,0,8054,0
1387656265.900279,1,0,8043,0,8494,0,8352,0,8619,0,8667,0,7303,0,8998,0,9060,0,8345,0,8283,0,63,0,8992,0,-1,0,8580,0,7791,0,8053,0
1387656265.908276,1,0,8056,0,8512,0,8347,0,8620,0,8667,0,7310,0,8999,0,9061,0,8340,0,8295,0,63,0,8993,0,-1,0,8588,0,7782,0,8052,0
1387656265.916306,1,0,8059,0,8511,0,8357,0,8615,0,8675,0,7300,0,8999,0,9050,0,8346,0,8287,0,63,0,8987,0,-1,0,8581,0,7792,0,8053,0
1387656265.924278,1,0,8061,0,8512,0,8351,0,8623,0,8672,0,7302,0,8996,0,9055,0,8347,0,8290,0,63,0,8985,0,-1,0,8589,0,7785,0,8053,0
1387656265.932275,1,0,8056,0,8507,0,8350,0,8623,0,8671,0,7296,0,9003,0,9062,0,8348,0,8283,0,63,0,8991,0,-1,0,8589,0,7788,0,8055,0
1387656265.939284,1,0,8064,0,8510,0,8353,0,8620,0,8675,0,7299,0,9000,0,9060,0,8348,0,8289,0,63,0,8994,0,-1,0,8582,0,7785,0,8053,0
1387656265.947274,1,0,8062,0,8509,0,8355,0,8616,0,8674,0,7300,0,9000,0,9055,0,8347,0,8290,0,63,0,8988,0,-1,0,8580,0,7790,0,8051,0
1387656265.95528,1,0,8053,0,8500,0,8349,0,8614,0,8671,0,7296,0,9006,0,9057,0,8347,0,8285,0,63,0,8983,0,-1,0,8583,0,7791,0,8053,0
1387656265.963278,1,0,8049,0,8488,0,8349,0,8616,0,8674,0,7296,0,9004,0,9065,0,8348,0,8289,0,63,0,8989,0,-1,0,8585,0,7785,0,8056,0
1387656265.971277,1,0,8043,0,8490,0,8362,0,8611,0,8677,0,7286,0,9000,0,9061,0,8347,0,8282,0,63,0,8991,0,-1,0,8583,0,7789,0,8055,0
1387656265.978274,1,0,8037,0,8496,0,8362,0,8605,0,8676,0,7291,0,9003,0,9064,0,8343,0,8280,0,63,0,8988,0,-1,0,8593,0,7784,0,8056,0
1387656265.986278,1,0,8026,0,8473,0,8363,0,8599,0,8678,0,7277,0,9014,0,9073,0,8347,0,8258,0,63,0,8984,0,-1,0,8585,0,7789,0,8062,0
1387656265.994279,1,0,8018,0,8459,0,8363,0,8607,0,8680,0,7287,0,9007,0,9086,0,8347,0,8263,0,63,0,8993,0,-1,0,8589,0,7775,0,8058,0
1387656266.002471,1,0,7997,0,8440,0,8380,0,8597,0,8678,0,7272,0,9016,0,9092,0,8344,0,8245,0,63,0,8998,0,-1,0,8578,0,7783,0,8059,0
1387656266.010281,1,0,7986,0,8429,0,8381,0,8588,0,8674,0,7275,0,9021,0,9112,0,8338,0,8252,0,63,0,8995,0,-1,0,8589,0,7777,0,8067,0
1387656266.01828,1,0,7964,0,8400,0,8390,0,8581,0,8679,0,7254,0,9027,0,9125,0,8341,0,8228,0,63,0,8992,0,-1,0,8595,0,7787,0,8075,0
1387656266.025276,1,0,7947,0,8379,0,8390,0,8580,0,8679,0,7257,0,9029,0,9138,0,8338,0,8225,0,81,0,8998,0,-1,0,8602,0,7766,0,8076,0
1387656266.033277,1,0,7923,0,8348,0,8406,0,8561,0,8680,0,7241,0,9043,0,9157,0,8335,0,8200,0,82,0,8997,0,-1,0,8589,0,7768,0,8078,0
1387656266.041277,1,0,7912,0,8331,0,8407,0,8553,0,8685,0,7241,0,9043,0,9179,0,8332,0,8205,0,83,0,8998,0,-1,0,8602,0,7766,0,8082,0
1387656266.049278,1,0,7896,0,8307,0,8418,0,8548,0,8694,0,7224,0,9053,0,9196,0,8337,0,8191,0,84,0,9003,0,-1,0,8608,0,7778,0,8096,0
1387656266.057278,1,0,7872,0,8279,0,8432,0,8543,0,8703,0,7219,0,9066,0,9229,0,8341,0,8183,0,85,0,9004,0,-1,0,8615,0,7768,0,8105,0
1387656266.064276,1,0,7864,0,8263,0,8445,0,8539,0,8712,0,7210,0,9073,0,9253,0,8353,0,8166,0,86,0,9000,0,-1,0,8629,0,7771,0,8113,0
1387656266.072276,1,0,7851,0,8236,0,8453,0,8529,0,8717,0,7191,0,9081,0,9291,0,8365,0,8155,0,87,0,9002,0,-1,0,8649,0,7772,0,8135,0
1387656266.080277,9,0,7809,0,8196,0,8457,0,8516,0,8722,0,7191,0,9091,0,9327,0,8364,0,8154,0,88,0,9006,0,-1,0,8658,0,7776,0,8143,0
1387656266.088279,10,0,7745,0,8121,0,8476,0,8498,0,8729,0,7179,0,9112,0,9405,0,8370,0,8134,0,89,0,9004,0,-3,0,8688,0,7777,0,8150,0
1387656266.096288,-2,0,7740,0,8085,0,8470,0,8497,0,8754,0,7164,0,9136,0,9451,0,8390,0,8118,0,90,0,8990,0,-5,0,8711,0,7785,0,8181,0
1387656266.104281,-5,0,7675,0,7980,0,8492,0,8448,0,8848,0,7078,0,9215,0,9570,0,8435,0,8010,0,91,0,9007,0,-4,0,8730,0,7820,0,8266,0
1387656266.111278,-6,0,7637,0,7981,0,8449,0,8427,0,8771,0,7093,0,9179,0,9684,0,8395,0,8024,0,92,0,9038,0,-2,0,8837,0,7740,0,8240,0
1387656266.119277,-4,0,7589,0,7853,0,8495,0,8419,0,8831,0,7040,0,9266,0,9830,0,8426,0,7913,0,93,0,8980,0,-2,0,8853,0,7788,0,8293,0
1387656266.127277,-2,0,7407,0,7511,0,8597,0,8288,0,9285,0,6803,0,9514,0,10027,0,8594,0,7600,0,94,0,9024,0,0,0,8788,0,8008,0,8579,0
1387656266.135277,1,0,7313,0,7337,0,8575,0,8080,0,9391,0,6681,0,9477,0,10331,0,8538,0,7418,0,95,0,9194,0,1,0,9021,0,7966,0,8606,0
1387656266.143276,6,0,7512,0,7577,0,8461,0,8218,0,8838,0,6922,0,9139,0,10484,0,8235,0,7639,0,96,0,9066,0,2,0,9303,0,7616,0,8220,0
1387656266.150277,4,0,7589,0,7608,0,8456,0,8464,0,8611,0,7005,0,9184,0,10881,0,8140,0,7681,0,97,0,8768,0,1,0,9099,0,7488,0,8077,0
1387656266.158276,3,0,7718,0,7372,0,8507,0,8416,0,8925,0,6874,0,9464,0,11196,0,8225,0,7571,0,98,0,8789,0,1,0,8799,0,7633,0,8203,0
1387656266.166279,1,0,8077,0,7521,0,8457,0,8357,0,8938,0,6902,0,9308,0,10960,0,8135,0,7771,0,99,0,8873,0,1,0,8998,0,7620,0,8037,0
1387656266.174287,-1,0,7929,0,7743,0,8383,0,8386,0,8835,0,6931,0,9120,0,10733,0,8115,0,7786,0,100,0,8831,0,0,0,9327,0,7389,0,8010,0
1387656266.182277,0,0,7443,0,7731,0,8379,0,8345,0,8986,0,6803,0,9290,0,10284,0,8384,0,7464,0,101,0,8934,0,0,0,9168,0,7442,0,8410,0
1387656266.19028,1,0,7319,0,7620,0,8354,0,8296,0,9008,0,6785,0,9367,0,10027,0,8516,0,7436,0,102,0,9090,0,0,0,9437,0,7696,0,8591,0
1387656266.197275,1,0,7354,0,7783,0,8260,0,8412,0,8816,0,6911,0,9105,0,9418,0,8488,0,7808,0,103,0,9039,0,0,0,9838,0,7796,0,8473,0
1387656266.205279,-1,0,7443,0,8204,0,8216,0,8522,0,8775,0,7028,0,8955,0,8298,0,8605,0,8221,0,104,0,8968,0,3,0,8946,0,7734,0,8550,0
1387656266.213276,2,0,7998,0,8738,0,8272,0,8632,0,8853,0,7218,0,8952,0,6900,0,8685,0,8704,0,105,0,8948,0,-1,0,7465,0,7757,0,8588,0
1387656266.221306,2,0,8333,0,8862,0,8275,0,8691,0,8661,0,7249,0,8832,0,6898,0,8530,0,8760,0,106,0,8981,0,-7,0,7741,0,7646,0,8258,0
1387656266.229277,4,0,8046,0,8617,0,8326,0,8644,0,8458,0,7098,0,8879,0,7804,0,8479,0,8467,0,107,0,9142,0,-8,0,8783,0,7564,0,8109,0
1387656266.237277,5,0,7592,0,8079,0,8543,0,8461,0,8657,0,6866,0,9468,0,7939,0,8416,0,7940,0,108,0,9212,0,-6,0,8427,0,7564,0,8250,0
1387656266.244277,4,0,7366,0,7851,0,8536,0,8396,0,8406,0,6887,0,9503,0,7833,0,8038,0,7708,0,109,0,9088,0,-3,0,7613,0,7485,0,7884,0
1387656266.252278,-3,0,7238,0,7652,0,8302,0,8349,0,8469,0,6730,0,9216,0,6960,0,8084,0,7439,0,110,0,8822,0,0,0,6703,0,7325,0,7804,0
1387656266.260277,-7,0,7013,0,6582,0,8377,0,7915,0,10113,0,6088,0,10215,0,5509,0,8590,0,6478,0,111,0,8513,0,-3,0,5491,0,7086,0,8798,0
1387656266.268279,-17,0,6888,0,5913,0,8720,0,7616,0,11079,0,5816,0,11292,0,5367,0,8613,0,5860,0,112,0,8507,0,-5,0,5423,0,7063,0,9258,0
1387656266.276279,-26,0,6920,0,6730,0,8674,0,7966,0,9847,0,6478,0,10397,0,6865,0,8378,0,6780,0,113,0,8797,0,-4,0,6677,0,7360,0,8609,0
1387656266.283277,-32,0,6709,0,6763,0,8926,0,8178,0,9402,0,6708,0,10762,0,7308,0,8367,0,7255,0,114,0,8813,0,-4,0,6838,0,7486,0,8800,0
1387656266.291283,-37,0,6459,0,5851,0,9717,0,8106,0,9960,0,6184,0,12782,0,7034,0,8422,0,6574,0,115,0,8648,0,-6,0,6394,0,7444,0,9469,0
1387656266.299279,-40,0,6662,0,6317,0,9600,0,8156,0,9370,0,6290,0,11781,0,8194,0,8682,0,6831,0,116,0,8734,0,-9,0,7231,0,7608,0,8908,0
1387656266.307278,-41,0,6961,0,7029,0,8563,0,8234,0,9006,0,6731,0,9142,0,8894,0,8962,0,7351,0,117,0,8834,0,-10,0,7912,0,7625,0,8295,0
1387656266.315284,-39,0,7180,0,7090,0,8169,0,8687,0,9246,0,6536,0,8755,0,8555,0,8668,0,7212,0,118,0,8839,0,-10,0,7690,0,7669,0,8484,0
1387656266.323277,-33,0,7159,0,7151,0,8406,0,9262,0,9161,0,6317,0,9670,0,8464,0,8182,0,7474,0,119,0,8716,0,-8,0,7514,0,7759,0,8741,0
1387656266.33028,-24,0,7109,0,7507,0,8299,0,9265,0,8759,0,6805,0,9038,0,9041,0,8138,0,8429,0,120,0,8543,0,-6,0,8106,0,8027,0,8362,0
1387656266.338288,-18,0,7447,0,7479,0,8387,0,8880,0,8748,0,6819,0,8599,0,9149,0,8149,0,8080,0,121,0,8676,0,-4,0,8574,0,8423,0,8000,0
1387656266.34628,-14,0,7582,0,7795,0,8502,0,8831,0,8644,0,6517,0,8668,0,9194,0,8019,0,7435,0,122,0,9069,0,-2,0,9141,0,8713,0,7880,0
1387656266.354277,-12,0,6000,0,7572,0,8696,0,8875,0,8767,0,6482,0,8942,0,9315,0,7935,0,7172,0,123,0,9161,0,-1,0,9476,0,9248,0,7785,0
1387656266.362322,-6,0,4466,0,6640,0,8760,0,8995,0,9021,0,6774,0,9155,0,9401,0,7747,0,7527,0,124,0,9147,0,0,0,9634,0,9245,0,7637,0
1387656266.369278,-13,0,4710,0,6110,0,8958,0,8992,0,8961,0,6726,0,9513,0,9262,0,7423,0,7745,0,125,0,9216,0,0,0,9307,0,9121,0,7300,0
1387656266.377277,-18,0,5877,0,6727,0,9056,0,9241,0,8690,0,6750,0,10084,0,9061,0,7269,0,8179,0,126,0,9111,0,0,0,8966,0,9012,0,6327,0
1387656266.385277,-22,0,7024,0,7458,0,9104,0,10004,0,8179,0,6834,0,9767,0,9034,0,7478,0,8633,0,127,0,8984,0,1,0,8912,0,9281,0,4808,0
1387656266.393278,-23,0,8261,0,7880,0,9017,0,10345,0,7793,0,6777,0,9040,0,9190,0,7690,0,8553,0,242,0,9054,0,3,0,9035,0,9149,0,4332,0
1387656266.401274,-19,0,9053,0,9208,0,8924,0,9911,0,7519,0,6610,0,8598,0,9280,0,7827,0,8188,0,242,0,9135,0,4,0,9195,0,8746,0,5078,0
1387656266.409277,-20,0,8798,0,10252,0,9042,0,9157,0,7747,0,6681,0,8375,0,9131,0,7767,0,8139,0,242,0,8970,0,5,0,9223,0,8416,0,6042,0
1387656266.416277,-20,0,8213,0,9915,0,8931,0,8579,0,8293,0,7177,0,8176,0,9082,0,7440,0,8699,0,242,0,8813,0,6,0,9172,0,7997,0,6859,0
1387656266.424276,-13,0,8020,0,9369,0,8596,0,8569,0,8413,0,7409,0,8329,0,9155,0,7418,0,8869,0,242,0,8959,0,5,0,9064,0,7794,0,7460,0
1387656266.432276,-15,0,8332,0,9284,0,8114,0,8896,0,8292,0,7394,0,8469,0,9079,0,8089,0,8901,0,242,0,9111,0,4,0,9153,0,7898,0,8017,0
1387656266.440275,-14,0,9295,0,9179,0,7845,0,8942,0,8133,0,7366,0,8267,0,8929,0,9021,0,8904,0,242,0,9150,0,2,0,9092,0,8332,0,8389,0
1387656266.448277,-17,0,10373,0,8506,0,7659,0,8532,0,8280,0,7649,0,8713,0,8992,0,9200,0,9010,0,242,0,9241,0,0,0,8864,0,7755,0,8819,0
1387656266.455275,-19,0,10903,0,8133,0,7432,0,8359,0,8456,0,7722,0,8718,0,8981,0,8938,0,9053,0,242,0,9156,0,-1,0,8585,0,6828,0,8983,0
1387656266.463276,-19,0,10747,0,8568,0,7471,0,8960,0,8268,0,7185,0,8113,0,8936,0,9147,0,8270,0,242,0,8973,0,-1,0,8618,0,6811,0,8556,0
1387656266.471275,-20,0,9820,0,9578,0,7702,0,9367,0,8016,0,6737,0,8126,0,8966,0,9136,0,7688,0,242,0,9026,0,-2,0,8682,0,7370,0,8365,0
1387656266.479278,-22,0,8573,0,9583,0,7684,0,8659,0,8452,0,7248,0,8667,0,8970,0,8554,0,8535,0,242,0,9097,0,-4,0,8583,0,7310,0,8745,0
1387656266.487278,-21,0,7990,0,9143,0,7596,0,8227,0,8704,0,7628,0,8596,0,8876,0,8363,0,9377,0,242,0,9000,0,-5,0,8583,0,7366,0,8521,0
1387656266.495277,-21,0,8446,0,9313,0,7796,0,8840,0,8441,0,7274,0,8511,0,8968,0,8266,0,8852,0,242,0,9021,0,-6,0,8765,0,7594,0,7690,0
1387656266.502274,-22,0,8920,0,9480,0,8128,0,9076,0,8317,0,7177,0,8786,0,9111,0,7633,0,8493,0,242,0,9085,0,-6,0,8820,0,7804,0,7436,0
1387656266.510323,-22,0,9155,0,9262,0,8367,0,8807,0,8297,0,7417,0,8871,0,9068,0,7440,0,8875,0,242,0,9027,0,-6,0,8675,0,7904,0,7570,0
1387656266.518277,-22,0,9172,0,8939,0,8544,0,8814,0,8217,0,7329,0,8775,0,9033,0,7854,0,8849,0,242,0,8992,0,-8,0,8639,0,8025,0,7592,0
1387656266.526274,-23,0,8774,0,8934,0,8609,0,8923,0,8399,0,7221,0,8808,0,9090,0,7827,0,8472,0,16,0,8982,0,-9,0,8660,0,8046,0,7850,0
1387656266.534276,-26,0,8325,0,8970,0,8593,0,8909,0,8600,0,7255,0,8947,0,9127,0,7667,0,8166,0,17,0,8986,0,-10,0,8661,0,8025,0,8111,0
1387656266.541276,-29,0,8079,0,8922,0,8490,0,8793,0,8545,0,7326,0,9001,0,9070,0,7788,0,8334,0,18,0,9034,0,-11,0,8636,0,8082,0,8110,0
1387656266.549277,-31,0,8099,0,8871,0,8284,0,8634,0,8511,0,7453,0,8937,0,9017,0,7963,0,8788,0,19,0,9060,0,-11,0,8630,0,7913,0,8020,0
1387656266.557285,-32,0,8196,0,8852,0,8207,0,8613,0,8528,0,7458,0,8856,0,9037,0,8039,0,8924,0,20,0,9048,0,-10,0,8670,0,7766,0,7934,0
1387656266.565288,-32,0,8313,0,8844,0,8257,0,8644,0,8552,0,7401,0,8853,0,9115,0,8057,0,8846,0,21,0,9056,0,-8,0,8666,0,7705,0,7915,0
1387656266.573281,-31,0,8458,0,8767,0,8232,0,8616,0,8485,0,7408,0,8785,0,9156,0,8178,0,8890,0,22,0,9057,0,-7,0,8677,0,7696,0,7903,0
1387656266.581277,-30,0,8433,0,8706,0,8140,0,8671,0,8417,0,7481,0,8780,0,9170,0,8273,0,8918,0,23,0,8994,0,-7,0,8704,0,7597,0,7895,0
1387656266.588276,-30,0,8345,0,8710,0,8085,0,8783,0,8464,0,7446,0,8786,0,9165,0,8356,0,8771,0,24,0,8939,0,-6,0,8714,0,7550,0,7933,0
1387656266.596277,-28,0,8107,0,8749,0,8121,0,8824,0,8594,0,7421,0,8850,0,9109,0,8402,0,8709,0,25,0,8994,0,-6,0,8630,0,7523,0,8057,0
1387656266.604391,-25,0,7960,0,8817,0,8108,0,8763,0,8659,0,7414,0,8911,0,8983,0,8511,0,8727,0,26,0,9049,0,-5,0,8537,0,7499,0,8204,0
1387656266.612283,-22,0,7943,0,8796,0,8035,0,8649,0,8723,0,7447,0,8968,0,8898,0,8599,0,8705,0,27,0,9025,0,-3,0,8485,0,7460,0,8313,0
1387656266.620279,-20,0,8091,0,8791,0,8030,0,8414,0,8773,0,7449,0,8976,0,8937,0,8579,0,8721,0,28,0,9049,0,-2,0,8516,0,7489,0,8442,0
1387656266.628285,-19,0,8248,0,8749,0,8045,0,8149,0,8796,0,7468,0,8954,0,9022,0,8531,0,8798,0,29,0,9146,0,0,0,8562,0,7508,0,8559,0
1387656266.635608,-18,0,8457,0,8548,0,8148,0,8567,0,8716,0,7414,0,8931,0,9001,0,8418,0,8695,0,31,0,8984,0,3,0,8508,0,7582,0,8252,0
1387656266.643687,-18,0,8258,0,8570,0,8334,0,8804,0,8738,0,7393,0,9002,0,8966,0,8214,0,8605,0,32,0,8896,0,4,0,8461,0,7721,0,8191,0
1387656266.651583,-18,0,8059,0,8658,0,8371,0,8814,0,8716,0,7392,0,9047,0,8923,0,8132,0,8619,0,33,0,8910,0,6,0,8455,0,7774,0,8207,0
1387656266.659576,-17,0,8000,0,8671,0,8291,0,8802,0,8643,0,7420,0,9011,0,8923,0,8155,0,8708,0,34,0,8940,0,8,0,8495,0,7735,0,8146,0
1387656266.667579,-16,0,8068,0,8690,0,8232,0,8776,0,8594,0,7427,0,8927,0,8999,0,8174,0,8775,0,35,0,8970,0,9,0,8573,0,7698,0,8076,0
1387656266.674639,-16,0,8122,0,8731,0,8220,0,8749,0,8580,0,7409,0,8867,0,9083,0,8179,0,8770,0,36,0,8994,0,9,0,8649,0,7680,0,8050,0
1387656266.682596,-15,0,8194,0,8798,0,8229,0,8818,0,8546,0,7374,0,8817,0,9107,0,8217,0,8736,0,37,0,9011,0,9,0,8694,0,7694,0,7953,0
1387656266.69059,-16,0,8204,0,8807,0,8250,0,8928,0,8508,0,7404,0,8745,0,9150,0,8251,0,8724,0,38,0,9030,0,9,0,8736,0,7737,0,7799,0
1387656266.6986,-16,0,8149,0,8768,0,8251,0,8946,0,8479,0,7424,0,8681,0,9221,0,8285,0,8723,0,39,0,9034,0,8,0,8793,0,7774,0,7814,0
1387656266.706597,-14,0,8057,0,8578,0,8227,0,8875,0,8580,0,7372,0,8763,0,9227,0,8331,0,8651,0,40,0,9034,0,6,0,8763,0,7732,0,8006,0
1387656266.714613,-15,0,8031,0,8479,0,8184,0,8825,0,8719,0,7281,0,8890,0,9142,0,8368,0,8585,0,41,0,9033,0,3,0,8692,0,7656,0,8055,0
1387656266.721578,-15,0,8006,0,8518,0,8211,0,8783,0,8761,0,7250,0,8955,0,9039,0,8339,0,8523,0,42,0,9030,0,0,0,8680,0,7678,0,7982,0
1387656266.729582,-14,0,7999,0,8552,0,8294,0,8722,0,8754,0,7253,0,9007,0,8940,0,8315,0,8464,0,43,0,9042,0,-3,0,8594,0,7771,0,8034,0
1387656266.737581,-13,0,8010,0,8542,0,8336,0,8697,0,8719,0,7237,0,9023,0,8956,0,8328,0,8403,0,44,0,9069,0,-5,0,8476,0,7812,0,8099,0
1387656266.746865,-11,0,8035,0,8555,0,8355,0,8758,0,8641,0,7216,0,8986,0,9055,0,8324,0,8324,0,45,0,9076,0,-6,0,8502,0,7817,0,8022,0
1387656266.753632,-11,0,8067,0,8357,0,8412,0,8839,0,8636,0,7200,0,9039,0,9048,0,8319,0,8212,0,46,0,9059,0,-7,0,8551,0,7838,0,8043,0
1387656266.760573,-10,0,8104,0,7945,0,8429,0,8840,0,8704,0,7187,0,9179,0,8926,0,8375,0,8281,0,47,0,9018,0,-8,0,8464,0,7824,0,8202,0
1387656266.768576,-9,0,8100,0,7860,0,8366,0,8780,0,8737,0,7205,0,9229,0,8861,0,8425,0,8505,0,48,0,8954,0,-9,0,8396,0,7773,0,8125,0
1387656266.776555,-8,0,8048,0,8274,0,8341,0,8811,0,8791,0,7184,0,9259,0,8827,0,8402,0,8488,0,49,0,8937,0,-9,0,8393,0,7744,0,7887,0
1387656266.784564,-7,0,8034,0,8567,0,8424,0,8875,0,9026,0,7022,0,9550,0,8591,0,8364,0,8167,0,50,0,8942,0,-9,0,8198,0,7734,0,7975,0
1387656266.79255,-3,0,8080,0,8423,0,8502,0,8749,0,9277,0,6922,0,9860,0,8336,0,8359,0,8016,0,51,0,8896,0,-9,0,7943,0,7715,0,8262,0
1387656266.800574,-1,0,8131,0,8373,0,8449,0,8561,0,9193,0,7099,0,9671,0,8462,0,8376,0,8251,0,52,0,8864,0,-9,0,8048,0,7715,0,8216,0
1387656266.807584,1,0,8106,0,8434,0,8380,0,8473,0,8908,0,7368,0,9239,0,8821,0,8386,0,8451,0,53,0,8877,0,-6,0,8390,0,7782,0,8106,0
1387656266.815558,2,0,8053,0,8134,0,8404,0,8300,0,8839,0,7504,0,9090,0,8979,0,8386,0,8473,0,54,0,8875,0,-1,0,8542,0,7849,0,8340,0
1387656266.823561,6,0,8050,0,8033,0,8359,0,8217,0,8860,0,7542,0,9075,0,9001,0,8438,0,8543,0,55,0,8879,0,1,0,8570,0,7815,0,8247,0
1387656266.83158,10,0,8110,0,8652,0,8321,0,8568,0,8754,0,7503,0,9011,0,9091,0,8458,0,8547,0,56,0,8908,0,2,0,8681,0,7819,0,7318,0
1387656266.839733,7,0,8097,0,8941,0,8505,0,8888,0,8866,0,7406,0,9072,0,9196,0,8271,0,8386,0,57,0,8907,0,2,0,8848,0,7975,0,6604,0
1387656266.846624,2,0,7944,0,8494,0,8618,0,8764,0,9082,0,7455,0,9240,0,9264,0,8227,0,8511,0,58,0,8895,0,3,0,8924,0,8040,0,6944,0
1387656266.854611,12,0,7860,0,8280,0,8485,0,8646,0,8907,0,7740,0,9311,0,9173,0,8467,0,8598,0,59,0,8926,0,4,0,8817,0,7976,0,7274,0
1387656266.862592,14,0,7972,0,8192,0,8504,0,8862,0,8621,0,7937,0,9508,0,8909,0,8443,0,8498,0,60,0,8872,0,5,0,8726,0,8030,0,7488,0
1387656266.870599,10,0,8067,0,7908,0,8670,0,8828,0,8694,0,7868,0,9775,0,8735,0,8273,0,9133,0,61,0,8812,0,3,0,8647,0,7953,0,8255,0
1387656266.878599,11,0,8017,0,8355,0,8487,0,8111,0,8934,0,7968,0,9554,0,8654,0,8580,0,10043,0,62,0,8962,0,1,0,8005,0,7601,0,8366,0
1387656266.88663,13,0,7947,0,9053,0,8142,0,7541,0,8964,0,8326,0,9125,0,8379,0,8864,0,9813,0,63,0,9129,0,2,0,7314,0,7535,0,7933,0
1387656266.893591,10,0,7670,0,8912,0,8113,0,7838,0,9049,0,8271,0,9096,0,8292,0,8521,0,8771,0,63,0,9079,0,1,0,7853,0,7672,0,7944,0
1387656266.901607,5,0,7071,0,8637,0,8021,0,8481,0,9527,0,7648,0,8893,0,8815,0,8541,0,8108,0,63,0,8989,0,-1,0,8830,0,7428,0,7813,0
1387656266.909587,4,0,6626,0,8770,0,7602,0,8774,0,9921,0,7118,0,8179,0,9226,0,9147,0,8055,0,63,0,9041,0,-4,0,8834,0,7194,0,8137,0
1387656266.917604,3,0,6747,0,9096,0,7473,0,8660,0,9875,0,6963,0,7832,0,9168,0,8696,0,8225,0,63,0,9018,0,-6,0,8567,0,7424,0,8841,0
1387656266.925678,5,0,7154,0,9442,0,7955,0,8399,0,9632,0,6987,0,8454,0,9195,0,7402,0,8366,0,63,0,8838,0,-8,0,8746,0,7692,0,7871,0
1387656266.932696,9,0,7543,0,9236,0,8617,0,8402,0,9025,0,7029,0,9919,0,9257,0,7315,0,8484,0,63,0,8786,0,-9,0,8684,0,7796,0,6518,0
1387656266.940598,12,0,7998,0,8542,0,8918,0,8702,0,8273,0,7001,0,10904,0,9061,0,8238,0,8590,0,63,0,8925,0,-12,0,8339,0,7953,0,7039,0
1387656266.948595,16,0,8313,0,8362,0,8730,0,8787,0,8282,0,7002,0,9973,0,8924,0,8547,0,8494,0,63,0,8999,0,-15,0,8331,0,8063,0,7711,0
1387656266.956595,19,0,8331,0,8515,0,8424,0,8722,0,8636,0,7112,0,8380,0,8961,0,8497,0,8329,0,63,0,8953,0,-18,0,8490,0,8002,0,7584,0
1387656266.964592,22,0,8326,0,8397,0,8320,0,8735,0,8560,0,7205,0,8088,0,8937,0,8816,0,8436,0,63,0,8959,0,-18,0,8527,0,7861,0,7408,0
1387656266.97259,29,0,8302,0,8454,0,8311,0,8654,0,8552,0,7214,0,8616,0,8948,0,8837,0,8599,0,63,0,8984,0,-18,0,8494,0,7788,0,7294,0
1387656266.979587,30,0,7985,0,8649,0,8246,0,8592,0,8814,0,7206,0,8896,0,8988,0,8331,0,8618,0,63,0,8990,0,-21,0,8467,0,7764,0,7994,0
1387656266.987581,33,0,7710,0,8434,0,8120,0,8673,0,9023,0,7136,0,8967,0,8941,0,8172,0,8362,0,63,0,8997,0,-23,0,8476,0,7662,0,8999,0
1387656266.996584,35,0,7936,0,8355,0,7862,0,8846,0,8881,0,7169,0,8382,0,9024,0,8567,0,8432,0,63,0,8959,0,-22,0,8646,0,7598,0,8881,0
1387656267.003586,36,0,8086,0,8421,0,8033,0,8782,0,8650,0,7231,0,8272,0,9126,0,8657,0,8692,0,63,0,8899,0,-21,0,8725,0,7829,0,8358,0
1387656267.012591,33,0,7983,0,7771,0,8901,0,8202,0,9048,0,6966,0,10161,0,8924,0,8403,0,8109,0,63,0,8820,0,-21,0,8368,0,8196,0,8189,0
1387656267.01859,31,0,8334,0,7267,0,9261,0,7855,0,9417,0,6789,0,11267,0,8773,0,8539,0,7541,0,63,0,8807,0,-19,0,8121,0,8202,0,7792,0
1387656267.026646,30,0,8610,0,7954,0,8636,0,8294,0,8960,0,7086,0,9573,0,9019,0,8785,0,8151,0,81,0,8924,0,-17,0,8426,0,7887,0,7489,0
1387656267.034603,27,0,7941,0,8634,0,8220,0,8772,0,8562,0,7381,0,8279,0,9198,0,8516,0,8813,0,82,0,9010,0,-15,0,8726,0,7752,0,7928,0
1387656267.04261,26,0,7411,0,8431,0,8406,0,8798,0,8699,0,7363,0,9001,0,9079,0,8190,0,8628,0,83,0,8975,0,-12,0,8691,0,7835,0,8425,0
1387656267.050612,26,0,7859,0,8125,0,8385,0,8814,0,8681,0,7364,0,9250,0,9048,0,8388,0,8499,0,84,0,8950,0,-11,0,8673,0,7807,0,8318,0
1387656267.05859,26,0,8206,0,8153,0,8208,0,8967,0,8535,0,7448,0,8792,0,9107,0,8616,0,8650,0,85,0,8956,0,-11,0,8698,0,7716,0,8063,0
1387656267.065617,27,0,8029,0,8336,0,8328,0,9091,0,8545,0,7447,0,8970,0,9062,0,8471,0,8611,0,86,0,8909,0,-11,0,8620,0,7768,0,8077,0
1387656267.073581,28,0,8070,0,8469,0,8427,0,9164,0,8515,0,7405,0,9076,0,9025,0,8359,0,8545,0,87,0,8881,0,-11,0,8602,0,7820,0,8046,0
1387656267.081587,30,0,8298,0,8311,0,8360,0,9033,0,8609,0,7330,0,8822,0,9021,0,8507,0,8531,0,88,0,8885,0,-12,0,8628,0,7764,0,7898,0
1387656267.089592,30,0,8348,0,8181,0,8269,0,8862,0,8755,0,7308,0,8743,0,9040,0,8596,0,8541,0,89,0,8896,0,-12,0,8644,0,7672,0,7983,0
1387656267.097594,30,0,8257,0,8287,0,8204,0,8779,0,8855,0,7311,0,8820,0,9057,0,8507,0,8592,0,90,0,8918,0,-12,0,8632,0,7631,0,8217,0
1387656267.105581,28,0,8074,0,8411,0,8157,0,8718,0,8944,0,7300,0,8770,0,9047,0,8403,0,8643,0,91,0,8954,0,-11,0,8607,0,7645,0,8281,0
1387656267.11259,28,0,7830,0,8586,0,8154,0,8711,0,8980,0,7291,0,8724,0,9033,0,8287,0,8682,0,92,0,8952,0,-12,0,8604,0,7652,0,8260,0
1387656267.120582,27,0,7650,0,8757,0,8210,0,8748,0,8971,0,7264,0,8834,0,9014,0,8138,0,8706,0,93,0,8897,0,-13,0,8600,0,7655,0,8333,0
1387656267.128596,26,0,7701,0,8826,0,8291,0,8742,0,8887,0,7231,0,8941,0,9008,0,8060,0,8740,0,94,0,8878,0,-14,0,8581,0,7692,0,8338,0
1387656267.136608,25,0,7901,0,8734,0,8376,0,8689,0,8790,0,7236,0,9001,0,9020,0,8148,0,8739,0,95,0,8914,0,-15,0,8550,0,7742,0,8172,0
1387656267.144589,24,0,8055,0,8532,0,8430,0,8662,0,8748,0,7263,0,9059,0,9029,0,8332,0,8694,0,96,0,8960,0,-17,0,8537,0,7780,0,7998,0
1387656267.151608,21,0,8115,0,8337,0,8435,0,8645,0,8756,0,7262,0,9085,0,9024,0,8479,0,8718,0,97,0,8975,0,-18,0,8543,0,7772,0,7960,0
1387656267.159594,19,0,8134,0,8225,0,8342,0,8629,0,8806,0,7249,0,8977,0,9023,0,8584,0,8795,0,98,0,8972,0,-19,0,8548,0,7694,0,8038,0
1387656267.167595,16,0,8031,0,8324,0,8199,0,8627,0,8898,0,7249,0,8753,0,9019,0,8585,0,8870,0,99,0,8972,0,-20,0,8552,0,7623,0,8124,0
1387656267.175596,13,0,7813,0,8631,0,8147,0,8620,0,8947,0,7249,0,8645,0,9015,0,8376,0,8915,0,100,0,8973,0,-21,0,8553,0,7633,0,8171,0
1387656267.183592,10,0,7697,0,8938,0,8193,0,8606,0,8914,0,7230,0,8745,0,9014,0,8124,0,8904,0,101,0,8974,0,-22,0,8540,0,7669,0,8244,0
1387656267.190612,7,0,7782,0,8997,0,8254,0,8623,0,8849,0,7204,0,8867,0,9000,0,8082,0,8855,0,102,0,8973,0,-23,0,8512,0,7671,0,8297,0
1387656267.199428,5,0,7980,0,8796,0,8312,0,8648,0,8760,0,7191,0,8921,0,8990,0,8263,0,8792,0,103,0,8973,0,-24,0,8490,0,7690,0,8209,0
1387656267.206714,4,0,8162,0,8519,0,8382,0,8638,0,8655,0,7196,0,9014,0,9002,0,8484,0,8757,0,104,0,8968,0,-25,0,8489,0,7745,0,8086,0
1387656267.21461,4,0,8332,0,8315,0,8415,0,8638,0,8574,0,7197,0,9117,0,9012,0,8630,0,8723,0,105,0,8968,0,-26,0,8506,0,7764,0,8090,0
1387656267.222613,4,0,8443,0,8223,0,8381,0,8672,0,8563,0,7187,0,9115,0,9014,0,8705,0,8707,0,106,0,8974,0,-27,0,8513,0,7713,0,8177,0
1387656267.230607,3,0,8461,0,8263,0,8303,0,8669,0,8588,0,7190,0,9006,0,9026,0,8731,0,8655,0,107,0,8970,0,-28,0,8519,0,7666,0,8215,0
1387656267.237616,3,0,8367,0,8430,0,8235,0,8602,0,8647,0,7208,0,8854,0,9027,0,8655,0,8607,0,108,0,8964,0,-29,0,8539,0,7672,0,8179,0
1387656267.24559,2,0,8166,0,8658,0,8247,0,8575,0,8711,0,7206,0,8807,0,9016,0,8409,0,8596,0,109,0,8968,0,-30,0,8561,0,7705,0,8159,0
1387656267.253582,1,0,7971,0,8803,0,8322,0,8596,0,8747,0,7174,0,8913,0,9024,0,8226,0,8604,0,110,0,8973,0,-31,0,8558,0,7745,0,8167,0
1387656267.261592,-1,0,7947,0,8751,0,8387,0,8599,0,8732,0,7153,0,9054,0,9033,0,8309,0,8576,0,111,0,8971,0,-33,0,8545,0,7801,0,8152,0
1387656267.269603,-2,0,8031,0,8592,0,8457,0,8572,0,8687,0,7151,0,9204,0,9022,0,8460,0,8551,0,112,0,8971,0,-34,0,8535,0,7848,0,8108,0
1387656267.277878,-4,0,8080,0,8499,0,8543,0,8565,0,8646,0,7145,0,9363,0,9014,0,8468,0,8542,0,113,0,8975,0,-35,0,8538,0,7876,0,8053,0
1387656267.284605,-5,0,8159,0,8509,0,8557,0,8582,0,8631,0,7130,0,9373,0,9014,0,8445,0,8495,0,114,0,8973,0,-35,0,8547,0,7896,0,7985,0
1387656267.292584,-5,0,8250,0,8570,0,8478,0,8611,0,8636,0,7129,0,9211,0,9020,0,8437,0,8441,0,115,0,8969,0,-35,0,8550,0,7897,0,7956,0
1387656267.300592,1,0,8263,0,8626,0,8438,0,8636,0,8630,0,7136,0,9118,0,9029,0,8383,0,8395,0,116,0,8972,0,-36,0,8552,0,7904,0,7978,0
1387656267.308575,-2,0,8269,0,8610,0,8486,0,8643,0,8607,0,7140,0,9154,0,9030,0,8374,0,8360,0,117,0,8976,0,-35,0,8561,0,7942,0,7950,0
1387656267.316598,-14,0,8319,0,8477,0,8520,0,8660,0,8626,0,7151,0,9122,0,9032,0,8504,0,8335,0,118,0,8975,0,-25,0,8584,0,7947,0,7886,0
1387656267.323614,-3,0,8352,0,8304,0,8445,0,8686,0,8643,0,7156,0,9068,0,9044,0,8631,0,8360,0,119,0,8980,0,-21,0,8621,0,7873,0,7971,0
1387656267.331585,-7,0,8400,0,8160,0,8442,0,8693,0,8543,0,7170,0,9172,0,9069,0,8693,0,8434,0,120,0,9004,0,-15,0,8663,0,7879,0,8108,0
1387656267.339581,-13,0,8325,0,8280,0,8449,0,8725,0,8733,0,7208,0,8953,0,9103,0,8632,0,8477,0,121,0,9046,0,-13,0,8621,0,7867,0,8023,0
1387656267.347589,-9,0,7697,0,8836,0,8015,0,8821,0,9288,0,7178,0,8501,0,9117,0,8067,0,8516,0,122,0,9051,0,-10,0,8689,0,7476,0,8343,0
1387656267.355585,-11,0,7069,0,9017,0,7536,0,8845,0,9324,0,7117,0,8716,0,9084,0,7679,0,8727,0,123,0,8966,0,-14,0,8817,0,7269,0,9151,0
1387656267.363583,-6,0,7547,0,8302,0,7542,0,8887,0,8893,0,7100,0,8665,0,9031,0,8428,0,8701,0,124,0,8874,0,-17,0,8370,0,7943,0,9009,0
1387656267.370606,-5,0,7966,0,7948,0,7940,0,9027,0,8924,0,7052,0,7983,0,8992,0,8991,0,8200,0,125,0,8899,0,-18,0,7810,0,8590,0,7747,0
1387656267.378592,0,0,8023,0,8545,0,8503,0,9036,0,8958,0,7139,0,8144,0,9014,0,8245,0,8051,0,126,0,8959,0,-17,0,8075,0,8329,0,7033,0
1387656267.386594,1,0,9392,0,8828,0,8794,0,8916,0,8422,0,7235,0,8620,0,9060,0,7780,0,8482,0,127,0,8909,0,-16,0,8499,0,7980,0,7841,0
1387656267.394626,-2,0,10104,0,8630,0,8585,0,8810,0,8174,0,7134,0,8686,0,9081,0,8210,0,8784,0,242,0,8881,0,-15,0,8356,0,8085,0,8566,0
1387656267.402588,-9,0,8720,0,8632,0,8402,0,8549,0,8416,0,7256,0,9506,0,9103,0,8386,0,8664,0,242,0,9012,0,-13,0,8375,0,8056,0,7700,0
1387656267.410592,-14,0,8704,0,8434,0,8569,0,8348,0,8319,0,7592,0,10435,0,9118,0,8467,0,8423,0,242,0,9094,0,-13,0,8894,0,7731,0,6744,0
1387656267.417588,-22,0,11087,0,8126,0,8735,0,8624,0,7976,0,7396,0,9865,0,9104,0,8573,0,8251,0,242,0,9042,0,-13,0,8972,0,7710,0,7047,0
1387656267.425587,-26,0,11609,0,8331,0,8880,0,8983,0,7935,0,6857,0,8950,0,9115,0,8264,0,8245,0,242,0,9110,0,-13,0,8387,0,8190,0,7300,0
1387656267.433594,-28,0,10105,0,8623,0,9261,0,8938,0,8028,0,6844,0,8899,0,9162,0,7971,0,8326,0,242,0,9269,0,-14,0,8046,0,8782,0,6921,0
1387656267.441588,-28,0,10883,0,8646,0,9621,0,8708,0,7931,0,7145,0,8991,0,9132,0,7546,0,8208,0,242,0,9257,0,-13,0,8275,0,8995,0,7006,0
1387656267.44959,-27,0,14229,0,8497,0,9359,0,8600,0,7701,0,7200,0,8633,0,9033,0,7111,0,7978,0,242,0,9116,0,-12,0,8453,0,8623,0,7652,0
1387656267.456591,-23,0,15866,0,8273,0,8870,0,8630,0,7524,0,7116,0,8160,0,8997,0,7507,0,7940,0,242,0,9009,0,-10,0,8385,0,8194,0,8579,0
1387656267.464582,-19,0,13596,0,8608,0,9327,0,8688,0,7561,0,7140,0,8307,0,9061,0,7833,0,8221,0,242,0,8959,0,-8,0,8498,0,8339,0,8898,0
1387656267.472579,-16,0,10614,0,9524,0,9862,0,8699,0,7891,0,7218,0,8719,0,9117,0,7326,0,8527,0,242,0,8947,0,-8,0,8636,0,8577,0,7584,0
1387656267.480589,-15,0,9476,0,9930,0,9224,0,8772,0,8282,0,7159,0,8646,0,9078,0,7256,0,8563,0,242,0,8947,0,-7,0,8622,0,8241,0,6363,0
1387656267.488581,-12,0,8994,0,9754,0,8403,0,8974,0,8480,0,7048,0,8597,0,9099,0,7712,0,8424,0,242,0,8958,0,-6,0,8607,0,7803,0,6811,0
1387656267.495599,-7,0,8542,0,9739,0,8235,0,9140,0,8549,0,6933,0,8938,0,9316,0,7554,0,8244,0,242,0,9025,0,-7,0,8512,0,7661,0,7890,0
1387656267.503579,-13,0,8552,0,9659,0,8269,0,9173,0,8568,0,6638,0,9212,0,9479,0,7235,0,8009,0,242,0,9127,0,-7,0,8462,0,7593,0,8671,0
1387656267.511608,-18,0,8916,0,9116,0,8392,0,9050,0,8523,0,6325,0,9222,0,9432,0,7336,0,7790,0,242,0,9161,0,-8,0,8609,0,7682,0,9001,0
1387656267.519585,-19,0,8900,0,8415,0,8662,0,8848,0,8551,0,6219,0,9201,0,9477,0,7469,0,7578,0,242,0,9210,0,-8,0,8767,0,8056,0,8541,0
1387656267.527588,-13,0,8599,0,8344,0,8728,0,9259,0,8603,0,5693,0,9279,0,9509,0,7623,0,6900,0,16,0,9634,0,-6,0,8900,0,8312,0,7663,0
1387656267.53559,-9,0,8460,0,8834,0,8570,0,9359,0,8601,0,4925,0,9387,0,9070,0,8070,0,6319,0,17,0,9664,0,-6,0,8938,0,8239,0,7238,0
1387656267.542604,-15,0,8587,0,8715,0,8489,0,7794,0,8718,0,5413,0,9331,0,8642,0,8450,0,6942,0,18,0,8716,0,-4,0,8691,0,8098,0,7503,0
1387656267.550601,-21,0,8519,0,8064,0,8639,0,6704,0,8742,0,6765,0,9381,0,8829,0,8356,0,7908,0,19,0,8392,0,-3,0,8474,0,8108,0,7916,0
1387656267.558621,-25,0,8322,0,8002,0,8507,0,7733,0,8468,0,7264,0,9225,0,9079,0,8376,0,8075,0,20,0,9145,0,-3,0,8583,0,8064,0,7913,0
1387656267.566614,-25,0,8437,0,8412,0,7874,0,8665,0,8408,0,7110,0,8176,0,9003,0,8735,0,7991,0,21,0,9412,0,-4,0,8710,0,7652,0,7852,0
1387656267.574592,-23,0,8406,0,8689,0,7826,0,8398,0,8679,0,7238,0,7538,0,8983,0,8709,0,8175,0,22,0,9180,0,-4,0,8665,0,7242,0,8113,0
1387656267.582595,-22,0,7975,0,8968,0,8257,0,8426,0,8739,0,7383,0,8210,0,9041,0,8368,0,8475,0,23,0,9058,0,-3,0,8551,0,7302,0,8164,0
1387656267.589584,-20,0,7722,0,9159,0,8131,0,8781,0,8626,0,7330,0,8638,0,8965,0,8341,0,8920,0,24,0,8511,0,-3,0,8399,0,7738,0,7801,0
1387656267.597588,-18,0,7757,0,9051,0,7879,0,8743,0,8678,0,7282,0,8357,0,8920,0,8410,0,9111,0,25,0,8117,0,-4,0,8408,0,8064,0,7596,0
1387656267.606591,-16,0,7809,0,8806,0,8178,0,8669,0,8786,0,7168,0,8516,0,8980,0,8294,0,8752,0,26,0,8661,0,-5,0,8638,0,7983,0,7729,0
1387656267.61358,-15,0,8016,0,8353,0,8354,0,8594,0,8842,0,7094,0,8794,0,9024,0,8272,0,8404,0,27,0,9092,0,-5,0,8763,0,7675,0,7947,0
1387656267.621587,-15,0,8323,0,7813,0,8103,0,8505,0,8886,0,7140,0,8596,0,9051,0,8366,0,8248,0,28,0,8971,0,-5,0,8701,0,7558,0,8159,0
1387656267.629621,-16,0,8417,0,7738,0,8046,0,8510,0,8830,0,7181,0,8577,0,9064,0,8382,0,8173,0,29,0,8880,0,-4,0,8609,0,7814,0,8276,0
1387656267.636278,-16,0,8417,0,7738,0,8046,0,8510,0,8830,0,7181,0,8577,0,9064,0,8382,0,8173,0,29,0,8880,0,-4,0,8609,0,7814,0,8276,0
1387656267.644283,-15,0,8397,0,8166,0,8149,0,8597,0,8730,0,7171,0,8743,0,9044,0,8364,0,8244,0,30,0,8894,0,-2,0,8560,0,7904,0,8228,0
1387656267.652277,-13,0,8434,0,8520,0,8024,0,8686,0,8712,0,7155,0,8742,0,9020,0,8415,0,8427,0,31,0,8890,0,0,0,8570,0,7420,0,8041,0
1387656267.660279,-10,0,8539,0,8494,0,7859,0,8689,0,8735,0,7151,0,8768,0,9019,0,8448,0,8527,0,32,0,8936,0,1,0,8641,0,6935,0,7787,0
1387656267.668285,-10,0,8771,0,8359,0,8029,0,8689,0,8692,0,7129,0,8966,0,9047,0,8306,0,8454,0,33,0,8997,0,0,0,8688,0,7083,0,7611,0
1387656267.67529,-11,0,9052,0,8286,0,8407,0,8695,0,8610,0,7107,0,9231,0,9070,0,8095,0,8295,0,34,0,8980,0,-1,0,8653,0,7654,0,7641,0
1387656267.683284,-15,0,9008,0,8153,0,8553,0,8675,0,8620,0,7098,0,9450,0,9075,0,8055,0,8152,0,35,0,8957,0,0,0,8608,0,8046,0,7869,0
1387656267.691279,-21,0,8600,0,8019,0,8443,0,8675,0,8683,0,7087,0,9569,0,9078,0,8225,0,8097,0,36,0,8990,0,0,0,8614,0,7990,0,8156,0
1387656267.699283,-29,0,8244,0,8078,0,8421,0,8710,0,8665,0,7087,0,9493,0,9076,0,8390,0,8145,0,37,0,9024,0,0,0,8642,0,7857,0,8345,0
1387656267.707277,-36,0,8045,0,8421,0,8581,0,8784,0,8614,0,7096,0,9329,0,9059,0,8361,0,8257,0,38,0,9025,0,0,0,8654,0,8014,0,8296,0
1387656267.714281,-39,0,7911,0,8786,0,8558,0,8857,0,8634,0,7108,0,9239,0,9066,0,8283,0,8363,0,39,0,9014,0,1,0,8658,0,8079,0,8011,0
1387656267.722277,-40,0,7992,0,8833,0,8321,0,8866,0,8647,0,7110,0,9183,0,9112,0,8329,0,8341,0,40,0,9040,0,0,0,8670,0,7851,0,7729,0
1387656267.730282,-40,0,8235,0,8700,0,8246,0,8813,0,8601,0,7097,0,9173,0,9125,0,8383,0,8262,0,41,0,9066,0,0,0,8681,0,7744,0,7664,0
1387656267.738278,-40,0,8277,0,8548,0,8309,0,8749,0,8568,0,7066,0,9264,0,9121,0,8336,0,8228,0,42,0,9131,0,0,0,8700,0,7721,0,7796,0
1387656267.7463,-43,0,8041,0,8487,0,8257,0,8671,0,8529,0,7018,0,9328,0,9160,0,8259,0,8157,0,43,0,9411,0,0,0,8757,0,7523,0,8007,0
1387656267.754284,-41,0,7866,0,8471,0,8211,0,8636,0,8476,0,7036,0,9281,0,9179,0,8236,0,8177,0,44,0,9616,0,1,0,8789,0,7479,0,8196,0
1387656267.761286,-38,0,8011,0,7261,0,8326,0,8737,0,8542,0,7167,0,9299,0,9144,0,8304,0,8447,0,45,0,9361,0,1,0,8750,0,7766,0,8295,0
1387656267.769279,-32,0,8148,0,5320,0,8462,0,8830,0,8680,0,7285,0,9541,0,9117,0,8366,0,8655,0,46,0,9016,0,2,0,8695,0,7954,0,8211,0
1387656267.777277,-30,0,7916,0,5652,0,8468,0,8740,0,8663,0,7290,0,9757,0,9104,0,8273,0,8573,0,47,0,9008,0,1,0,8682,0,7843,0,7915,0
1387656267.785281,-29,0,7736,0,7965,0,8351,0,8654,0,8475,0,7315,0,9742,0,9046,0,8136,0,8623,0,48,0,8958,0,-2,0,8588,0,7737,0,7589,0
1387656267.793313,-30,0,8003,0,8955,0,8283,0,8551,0,8361,0,7410,0,9876,0,8967,0,8155,0,8934,0,49,0,8572,0,-5,0,8310,0,7859,0,7488,0
1387656267.800343,-32,0,8188,0,8523,0,8319,0,8300,0,8426,0,7397,0,10269,0,8937,0,8226,0,8988,0,50,0,8385,0,-4,0,8096,0,7934,0,7638,0
1387656267.808375,-31,0,8005,0,8513,0,8339,0,8013,0,8517,0,7251,0,10380,0,8965,0,8209,0,8695,0,51,0,8661,0,-1,0,8210,0,7806,0,7885,0
1387656267.816292,-29,0,8339,0,8630,0,8346,0,7373,0,8541,0,7158,0,10096,0,9013,0,8237,0,8539,0,52,0,8968,0,0,0,8432,0,7730,0,8112,0
1387656267.82428,-28,0,8519,0,8441,0,8397,0,6782,0,8542,0,7180,0,9803,0,9076,0,8330,0,8676,0,53,0,9029,0,1,0,8551,0,7829,0,8230,0
1387656267.832286,-28,0,7155,0,8417,0,8447,0,7364,0,8558,0,7221,0,9563,0,9163,0,8313,0,8788,0,54,0,9044,0,2,0,8682,0,7938,0,8194,0
1387656267.84028,-27,0,6244,0,8477,0,8392,0,8493,0,8533,0,7257,0,9263,0,9226,0,8251,0,8790,0,55,0,9163,0,5,0,8688,0,7935,0,8047,0
1387656267.847287,-24,0,7394,0,8455,0,8265,0,8733,0,8448,0,7323,0,9051,0,9227,0,8325,0,8795,0,56,0,9209,0,8,0,8500,0,7871,0,7909,0
1387656267.855282,-22,0,8398,0,8407,0,8213,0,8547,0,8440,0,7358,0,9036,0,9185,0,8455,0,8743,0,57,0,9108,0,11,0,8485,0,7809,0,7859,0
1387656267.863286,-22,0,8177,0,8338,0,8267,0,8710,0,8598,0,7291,0,9111,0,9126,0,8486,0,8555,0,58,0,8988,0,12,0,8648,0,7765,0,7892,0
1387656267.87128,-25,0,8206,0,8112,0,8306,0,8769,0,8747,0,7176,0,9169,0,9085,0,8455,0,8313,0,59,0,8973,0,14,0,8651,0,7729,0,8032,0
1387656267.879288,-26,0,8460,0,8000,0,8287,0,8610,0,8741,0,7148,0,9168,0,9085,0,8413,0,8219,0,60,0,8998,0,14,0,8609,0,7704,0,8209,0
1387656267.886277,-27,0,8234,0,8229,0,8339,0,8503,0,8728,0,7184,0,9148,0,9099,0,8350,0,8278,0,61,0,8982,0,15,0,8715,0,7733,0,8213,0
1387656267.894283,-27,0,8056,0,8484,0,8443,0,8475,0,8748,0,7164,0,9154,0,9105,0,8301,0,8287,0,62,0,8983,0,15,0,8765,0,7803,0,8027,0
1387656267.902279,-25,0,8003,0,8530,0,8426,0,8569,0,8699,0,7114,0,9145,0,9113,0,8334,0,8207,0,63,0,9003,0,15,0,8695,0,7859,0,7896,0
1387656267.911284,-23,0,7914,0,8543,0,8316,0,8726,0,8587,0,7116,0,9038,0,9138,0,8408,0,8202,0,63,0,9075,0,15,0,8692,0,7947,0,7864,0
1387656267.918278,-19,0,7917,0,8648,0,8223,0,8842,0,8505,0,7137,0,8881,0,9187,0,8472,0,8269,0,63,0,9239,0,16,0,8790,0,7850,0,7852,0
1387656267.926278,-14,0,8101,0,8744,0,8034,0,8826,0,8517,0,7089,0,8786,0,9207,0,8568,0,8255,0,63,0,9383,0,16,0,8850,0,7247,0,7954,0
1387656267.933288,-8,0,8376,0,8657,0,7782,0,8700,0,8607,0,6979,0,8793,0,9180,0,8655,0,8041,0,63,0,9397,0,16,0,8812,0,6663,0,8150,0
1387656267.941288,1,0,8500,0,8479,0,7721,0,8601,0,8685,0,6911,0,8826,0,9155,0,8624,0,7791,0,63,0,9353,0,16,0,8770,0,6770,0,8237,0
1387656267.949285,9,0,8422,0,8482,0,7845,0,8629,0,8699,0,6944,0,8813,0,9137,0,8517,0,7858,0,63,0,9301,0,16,0,8765,0,7184,0,8226,0
1387656267.957278,16,0,8223,0,8604,0,7970,0,8773,0,8682,0,7002,0,8813,0,9104,0,8447,0,8138,0,63,0,9196,0,15,0,8722,0,7337,0,8231,0
1387656267.965282,21,0,8026,0,8620,0,8063,0,8908,0,8659,0,7040,0,8875,0,9071,0,8425,0,8269,0,63,0,9077,0,13,0,8644,0,7369,0,8161,0
1387656267.973279,24,0,7957,0,8551,0,8150,0,8882,0,8678,0,7138,0,8984,0,9040,0,8409,0,8360,0,63,0,8910,0,10,0,8582,0,7453,0,7993,0
1387656267.980325,26,0,8011,0,8498,0,8199,0,8729,0,8744,0,7270,0,9104,0,8991,0,8391,0,8571,0,63,0,8697,0,8,0,8534,0,7514,0,7884,0
1387656267.988283,27,0,8032,0,8464,0,8240,0,8618,0,8754,0,7308,0,9183,0,8962,0,8360,0,8675,0,63,0,8623,0,7,0,8514,0,7588,0,7868,0
1387656267.996283,29,0,7971,0,8482,0,8344,0,8595,0,8715,0,7266,0,9207,0,8966,0,8306,0,8650,0,63,0,8663,0,6,0,8504,0,7743,0,7895,0
1387656268.004278,31,0,7909,0,8544,0,8486,0,8569,0,8704,0,7237,0,9226,0,8965,0,8251,0,8621,0,63,0,8687,0,5,0,8471,0,7929,0,7979,0
1387656268.012284,30,0,7893,0,8587,0,8544,0,8541,0,8680,0,7253,0,9232,0,8966,0,8222,0,8553,0,63,0,8786,0,4,0,8483,0,8021,0,8095,0
1387656268.019279,29,0,7901,0,8610,0,8498,0,8541,0,8611,0,7300,0,9174,0,9002,0,8206,0,8477,0,63,0,8948,0,4,0,8554,0,8002,0,8131,0
1387656268.027416,27,0,7943,0,8632,0,8452,0,8551,0,8580,0,7331,0,9113,0,9052,0,8214,0,8472,0,63,0,8996,0,3,0,8596,0,7962,0,8069,0
1387656268.035279,26,0,8014,0,8619,0,8436,0,8534,0,8583,0,7314,0,9088,0,9078,0,8260,0,8454,0,63,0,8994,0,3,0,8603,0,7919,0,7964,0
1387656268.043278,26,0,8069,0,8579,0,8409,0,8473,0,8591,0,7288,0,9049,0,9089,0,8320,0,8387,0,81,0,9036,0,2,0,8608,0,7852,0,7886,0
1387656268.051314,24,0,8080,0,8560,0,8364,0,8411,0,8621,0,7276,0,8998,0,9100,0,8362,0,8325,0,82,0,9048,0,2,0,8590,0,7776,0,7893,0
1387656268.059278,21,0,8060,0,8561,0,8286,0,8397,0,8649,0,7257,0,8953,0,9091,0,8388,0,8323,0,83,0,9030,0,3,0,8559,0,7672,0,8001,0
1387656268.066283,16,0,8017,0,8552,0,8194,0,8436,0,8664,0,7238,0,8917,0,9070,0,8393,0,8367,0,84,0,9018,0,4,0,8526,0,7565,0,8148,0
1387656268.074278,11,0,7972,0,8535,0,8183,0,8504,0,8678,0,7239,0,8930,0,9058,0,8371,0,8374,0,85,0,8993,0,4,0,8488,0,7573,0,8233,0
1387656268.082282,8,0,7967,0,8533,0,8266,0,8559,0,8678,0,7243,0,8981,0,9041,0,8340,0,8366,0,86,0,8974,0,4,0,8482,0,7687,0,8195,0
1387656268.090276,5,0,7994,0,8560,0,8340,0,8579,0,8662,0,7230,0,8991,0,9025,0,8323,0,8379,0,87,0,8982,0,4,0,8506,0,7784,0,8053,0
1387656268.098285,5,0,8027,0,8599,0,8352,0,8595,0,8653,0,7216,0,8937,0,9042,0,8319,0,8399,0,88,0,9004,0,3,0,8524,0,7832,0,7936,0
1387656268.105277,5,0,8045,0,8609,0,8342,0,8627,0,8648,0,7211,0,8890,0,9068,0,8315,0,8413,0,89,0,9018,0,2,0,8539,0,7855,0,7936,0
1387656268.113283,5,0,8046,0,8584,0,8318,0,8638,0,8650,0,7219,0,8863,0,9064,0,8323,0,8440,0,90,0,9017,0,1,0,8560,0,7812,0,8026,0
1387656268.121278,7,0,8017,0,8543,0,8256,0,8643,0,8665,0,7230,0,8821,0,9061,0,8356,0,8435,0,91,0,9007,0,0,0,8586,0,7691,0,8122,0
1387656268.129282,8,0,7969,0,8514,0,8209,0,8668,0,8675,0,7238,0,8773,0,9075,0,8386,0,8388,0,92,0,9001,0,0,0,8615,0,7601,0,8172,0
1387656268.137277,10,0,7937,0,8505,0,8234,0,8669,0,8685,0,7226,0,8793,0,9075,0,8386,0,8339,0,93,0,9009,0,0,0,8608,0,7629,0,8143,0
1387656268.145282,11,0,7960,0,8513,0,8302,0,8637,0,8700,0,7189,0,8883,0,9052,0,8361,0,8294,0,94,0,9000,0,0,0,8580,0,7730,0,8046,0
1387656268.152277,12,0,8015,0,8523,0,8363,0,8601,0,8706,0,7144,0,8968,0,9036,0,8337,0,8246,0,95,0,8979,0,0,0,8592,0,7807,0,7946,0
1387656268.160373,12,0,8051,0,8519,0,8391,0,8574,0,8702,0,7121,0,9016,0,9041,0,8330,0,8229,0,96,0,8984,0,0,0,8614,0,7813,0,7910,0
1387656268.16828,12,0,8045,0,8498,0,8366,0,8589,0,8701,0,7123,0,9037,0,9040,0,8340,0,8255,0,97,0,8995,0,0,0,8592,0,7764,0,7963,0
1387656268.176286,11,0,8025,0,8477,0,8317,0,8646,0,8699,0,7139,0,9032,0,9032,0,8358,0,8310,0,98,0,8996,0,-1,0,8563,0,7718,0,8065,0
1387656268.184285,9,0,8034,0,8457,0,8307,0,8701,0,8685,0,7159,0,9006,0,9030,0,8376,0,8379,0,99,0,8999,0,-1,0,8549,0,7718,0,8153,0
1387656268.191279,6,0,8071,0,8437,0,8315,0,8708,0,8683,0,7165,0,8979,0,9038,0,8395,0,8420,0,100,0,9001,0,-1,0,8546,0,7723,0,8181,0
1387656268.199283,4,0,8105,0,8400,0,8294,0,8680,0,8705,0,7165,0,8958,0,9044,0,8420,0,8443,0,101,0,9001,0,0,0,8554,0,7710,0,8149,0
1387656268.207278,2,0,8121,0,8345,0,8278,0,8675,0,8718,0,7187,0,8953,0,9032,0,8431,0,8515,0,102,0,9009,0,0,0,8533,0,7696,0,8095,0
1387656268.215284,1,0,8115,0,8329,0,8280,0,8706,0,8714,0,7223,0,8964,0,9005,0,8419,0,8608,0,103,0,9013,0,0,0,8486,0,7686,0,8057,0
1387656268.22328,1,0,8079,0,8369,0,8268,0,8739,0,8704,0,7244,0,8972,0,8993,0,8405,0,8624,0,104,0,9005,0,0,0,8469,0,7684,0,8046,0
1387656268.231289,1,0,8016,0,8435,0,8250,0,8762,0,8685,0,7254,0,8965,0,9009,0,8386,0,8602,0,105,0,9005,0,0,0,8483,0,7690,0,8058,0
1387656268.238278,1,0,7970,0,8513,0,8247,0,8766,0,8652,0,7253,0,8947,0,9027,0,8365,0,8576,0,106,0,9005,0,0,0,8503,0,7688,0,8084,0
1387656268.246284,1,0,7964,0,8595,0,8269,0,8730,0,8623,0,7239,0,8949,0,9043,0,8348,0,8517,0,107,0,8999,0,0,0,8535,0,7697,0,8092,0
1387656268.254282,2,0,7975,0,8629,0,8319,0,8672,0,8620,0,7214,0,8981,0,9059,0,8320,0,8424,0,108,0,8998,0,-1,0,8559,0,7737,0,8060,0
1387656268.262286,3,0,7986,0,8647,0,8333,0,8648,0,8623,0,7201,0,8990,0,9068,0,8310,0,8362,0,109,0,8998,0,-2,0,8559,0,7741,0,7994,0
1387656268.27128,5,0,8013,0,8694,0,8275,0,8666,0,8612,0,7211,0,8963,0,9067,0,8346,0,8354,0,110,0,9001,0,-2,0,8559,0,7682,0,7931,0
1387656268.278283,6,0,8022,0,8713,0,8238,0,8692,0,8610,0,7230,0,8963,0,9060,0,8357,0,8384,0,111,0,8998,0,-2,0,8561,0,7645,0,7914,0
1387656268.28528,8,0,7990,0,8680,0,8252,0,8704,0,8635,0,7240,0,8993,0,9058,0,8311,0,8412,0,112,0,8983,0,-1,0,8558,0,7652,0,7938,0
1387656268.293279,8,0,7963,0,8643,0,8261,0,8698,0,8649,0,7243,0,8997,0,9058,0,8293,0,8416,0,113,0,8986,0,0,0,8556,0,7658,0,7992,0
1387656268.301283,9,0,7961,0,8619,0,8283,0,8667,0,8631,0,7233,0,9002,0,9047,0,8302,0,8413,0,114,0,9003,0,0,0,8550,0,7695,0,8046,0
1387656268.309276,10,0,7983,0,8592,0,8324,0,8635,0,8621,0,7210,0,9030,0,9038,0,8294,0,8408,0,115,0,9005,0,1,0,8545,0,7756,0,8052,0
1387656268.317284,11,0,8018,0,8586,0,8325,0,8639,0,8630,0,7204,0,9037,0,9048,0,8291,0,8418,0,116,0,9001,0,1,0,8546,0,7760,0,8017,0
1387656268.32428,12,0,8042,0,8600,0,8284,0,8667,0,8628,0,7225,0,9025,0,9063,0,8303,0,8440,0,117,0,9005,0,2,0,8551,0,7721,0,7979,0
1387656268.332282,13,0,8037,0,8611,0,8275,0,8692,0,8626,0,7242,0,9021,0,9060,0,8307,0,8466,0,118,0,9004,0,2,0,8546,0,7712,0,7956,0
1387656268.340276,13,0,8006,0,8611,0,8312,0,8714,0,8638,0,7248,0,9016,0,9053,0,8309,0,8479,0,119,0,9003,0,1,0,8532,0,7724,0,7955,0
1387656268.348282,14,0,7990,0,8604,0,8317,0,8718,0,8649,0,7252,0,8988,0,9061,0,8319,0,8481,0,120,0,8994,0,1,0,8526,0,7724,0,8000,0
1387656268.356278,16,0,8010,0,8588,0,8291,0,8693,0,8660,0,7236,0,8963,0,9068,0,8326,0,8476,0,121,0,8980,0,1,0,8520,0,7715,0,8063,0
1387656268.364282,18,0,8052,0,8569,0,8299,0,8667,0,8679,0,7203,0,8974,0,9051,0,8335,0,8462,0,122,0,8978,0,1,0,8504,0,7712,0,8105,0
1387656268.371277,19,0,8092,0,8562,0,8321,0,8649,0,8687,0,7177,0,9005,0,9037,0,8344,0,8441,0,123,0,8985,0,0,0,8497,0,7721,0,8111,0
1387656268.379281,20,0,8126,0,8573,0,8320,0,8633,0,8678,0,7173,0,9028,0,9039,0,8345,0,8425,0,124,0,8994,0,0,0,8504,0,7734,0,8096,0
1387656268.387277,22,0,8135,0,8596,0,8321,0,8633,0,8679,0,7180,0,9028,0,9048,0,8348,0,8421,0,125,0,9006,0,-1,0,8514,0,7726,0,8069,0
1387656268.395315,24,0,8130,0,8605,0,8310,0,8661,0,8690,0,7184,0,9016,0,9058,0,8359,0,8417,0,126,0,9003,0,-1,0,8520,0,7684,0,8040,0
1387656268.403886,27,0,8123,0,8586,0,8273,0,8691,0,8707,0,7201,0,9009,0,9057,0,8363,0,8390,0,127,0,9000,0,-2,0,8506,0,7632,0,8035,0
1387656268.410288,29,0,8119,0,8561,0,8240,0,8718,0,8725,0,7224,0,9004,0,9045,0,8363,0,8301,0,242,0,9026,0,-3,0,8468,0,7592,0,8069,0
1387656268.418293,31,0,8135,0,8547,0,8220,0,8756,0,8741,0,7209,0,8987,0,9043,0,8368,0,8177,0,242,0,9052,0,-4,0,8445,0,7579,0,8118,0
1387656268.426282,32,0,8148,0,8511,0,8237,0,8778,0,8748,0,7182,0,8972,0,9045,0,8368,0,8167,0,242,0,9036,0,-4,0,8441,0,7610,0,8149,0
1387656268.434285,32,0,8132,0,8463,0,8281,0,8748,0,8734,0,7195,0,8982,0,9038,0,8362,0,8247,0,242,0,9006,0,-4,0,8428,0,7660,0,8150,0
1387656268.442278,30,0,8098,0,8468,0,8295,0,8708,0,8719,0,7204,0,9000,0,9040,0,8355,0,8212,0,242,0,9004,0,-4,0,8416,0,7683,0,8120,0
1387656268.450284,29,0,8072,0,8523,0,8277,0,8694,0,8723,0,7177,0,8985,0,9046,0,8341,0,8126,0,242,0,9015,0,-3,0,8425,0,7684,0,8073,0
1387656268.457281,28,0,8067,0,8554,0,8284,0,8670,0,8719,0,7163,0,8940,0,9042,0,8330,0,8185,0,242,0,9004,0,-3,0,8444,0,7699,0,8025,0
1387656268.465288,30,0,8064,0,8556,0,8309,0,8637,0,8696,0,7166,0,8908,0,9040,0,8316,0,8298,0,242,0,8979,0,-4,0,8451,0,7725,0,8002,0
1387656268.473283,32,0,8045,0,8569,0,8315,0,8634,0,8680,0,7168,0,8886,0,9044,0,8297,0,8298,0,242,0,8966,0,-4,0,8452,0,7729,0,8002,0
1387656268.481285,35,0,8044,0,8589,0,8306,0,8644,0,8681,0,7177,0,8852,0,9044,0,8291,0,8272,0,242,0,8968,0,-4,0,8457,0,7712,0,8002,0
1387656268.489279,37,0,8083,0,8576,0,8308,0,8654,0,8685,0,7189,0,8811,0,9048,0,8300,0,8303,0,242,0,8982,0,-4,0,8471,0,7708,0,8009,0
1387656268.496284,36,0,8130,0,8548,0,8331,0,8661,0,8683,0,7194,0,8794,0,9059,0,8315,0,8319,0,242,0,8987,0,-4,0,8463,0,7734,0,8035,0
1387656268.504279,35,0,8177,0,8518,0,8355,0,8635,0,8699,0,7185,0,8833,0,9065,0,8328,0,8234,0,242,0,8982,0,-4,0,8449,0,7764,0,8067,0
1387656268.512283,33,0,8211,0,8476,0,8394,0,8602,0,8720,0,7142,0,8923,0,9069,0,8328,0,8082,0,242,0,8979,0,-4,0,8544,0,7806,0,8078,0
1387656268.520276,31,0,8226,0,8455,0,8428,0,8600,0,8712,0,7092,0,8999,0,9074,0,8325,0,7997,0,242,0,8975,0,-4,0,8653,0,7829,0,8087,0
1387656268.528282,30,0,8238,0,8468,0,8413,0,8599,0,8712,0,7067,0,9018,0,9079,0,8338,0,8012,0,242,0,8971,0,-4,0,8611,0,7788,0,8092,0
1387656268.536279,29,0,8221,0,8481,0,8370,0,8592,0,8741,0,7051,0,9028,0,9076,0,8348,0,8058,0,242,0,8972,0,-5,0,8538,0,7737,0,8092,0
1387656268.543278,28,0,8163,0,8492,0,8344,0,8612,0,8746,0,7064,0,9051,0,9057,0,8343,0,8146,0,16,0,8969,0,-5,0,8494,0,7733,0,8099,0
1387656268.551283,26,0,8106,0,8521,0,8320,0,8664,0,8718,0,7131,0,9022,0,9034,0,8339,0,8301,0,17,0,8973,0,-6,0,8373,0,7716,0,8119,0
1387656268.559283,24,0,8071,0,8535,0,8288,0,8701,0,8698,0,7192,0,8962,0,9027,0,8333,0,8436,0,18,0,8988,0,-7,0,8289,0,7667,0,8120,0
1387656268.567287,22,0,8050,0,8528,0,8278,0,8702,0,8688,0,7213,0,8966,0,9032,0,8327,0,8483,0,19,0,8988,0,-7,0,8354,0,7653,0,8097,0
1387656268.575279,19,0,8049,0,8519,0,8280,0,8699,0,8675,0,7214,0,9060,0,9032,0,8322,0,8469,0,20,0,8984,0,-7,0,8412,0,7670,0,8056,0
1387656268.583285,18,0,8061,0,8512,0,8276,0,8709,0,8658,0,7208,0,9213,0,9034,0,8314,0,8453,0,21,0,8989,0,-6,0,8422,0,7677,0,7995,0
1387656268.590278,17,0,8069,0,8502,0,8280,0,8707,0,8631,0,7195,0,9383,0,9038,0,8313,0,8444,0,22,0,8995,0,-6,0,8469,0,7689,0,7949,0
1387656268.598288,17,0,8074,0,8499,0,8289,0,8691,0,8619,0,7194,0,9418,0,9042,0,8317,0,8443,0,23,0,8989,0,-5,0,8521,0,7707,0,7958,0
1387656268.606279,17,0,8070,0,8500,0,8285,0,8683,0,8634,0,7203,0,9240,0,9059,0,8321,0,8435,0,24,0,8974,0,-4,0,8553,0,7691,0,8014,0
1387656268.614283,17,0,8058,0,8516,0,8273,0,8684,0,8640,0,7210,0,9033,0,9065,0,8324,0,8433,0,25,0,8969,0,-5,0,8571,0,7668,0,8064,0
1387656268.622278,18,0,8041,0,8547,0,8280,0,8701,0,8638,0,7223,0,8948,0,9045,0,8321,0,8449,0,26,0,8972,0,-5,0,8558,0,7684,0,8068,0
1387656268.629282,19,0,8026,0,8567,0,8305,0,8738,0,8644,0,7221,0,8972,0,9021,0,8316,0,8463,0,27,0,8973,0,-5,0,8521,0,7720,0,8036,0
1387656268.637579,17,0,8024,0,8534,0,8340,0,8745,0,8675,0,7187,0,9141,0,9020,0,8332,0,8446,0,29,0,8971,0,-5,0,8467,0,7742,0,8000,0
1387656268.645591,16,0,8027,0,8499,0,8343,0,8710,0,8682,0,7172,0,9273,0,9011,0,8333,0,8448,0,30,0,8972,0,-5,0,8462,0,7744,0,8014,0
1387656268.653617,16,0,8027,0,8471,0,8335,0,8679,0,8673,0,7178,0,9394,0,9014,0,8339,0,8478,0,31,0,8976,0,-5,0,8471,0,7737,0,8035,0
1387656268.661581,15,0,8037,0,8467,0,8326,0,8673,0,8658,0,7194,0,9426,0,9006,0,8352,0,8511,0,32,0,8983,0,-5,0,8472,0,7730,0,8059,0
1387656268.669588,14,0,8038,0,8468,0,8312,0,8677,0,8651,0,7208,0,9410,0,9005,0,8353,0,8506,0,33,0,8990,0,-4,0,8476,0,7713,0,8074,0
1387656268.67761,12,0,8034,0,8479,0,8291,0,8680,0,8652,0,7211,0,9376,0,9030,0,8350,0,8477,0,34,0,8993,0,-4,0,8506,0,7685,0,8062,0
1387656268.684587,10,0,8043,0,8510,0,8281,0,8685,0,8652,0,7206,0,9287,0,9044,0,8353,0,8448,0,35,0,8997,0,-4,0,8530,0,7672,0,8024,0
1387656268.693583,7,0,8050,0,8527,0,8277,0,8680,0,8646,0,7201,0,9209,0,9033,0,8356,0,8432,0,36,0,9006,0,-2,0,8527,0,7675,0,7983,0
1387656268.700576,8,0,8031,0,8519,0,8283,0,8659,0,8643,0,7203,0,9195,0,9033,0,8351,0,8431,0,37,0,9006,0,-1,0,8526,0,7688,0,7957,0
1387656268.708584,9,0,8011,0,8514,0,8302,0,8639,0,8651,0,7207,0,9161,0,9037,0,8343,0,8452,0,38,0,9002,0,0,0,8527,0,7716,0,7972,0
1387656268.715595,11,0,7992,0,8500,0,8297,0,8631,0,8648,0,7212,0,9077,0,9030,0,8340,0,8500,0,39,0,9003,0,-1,0,8523,0,7725,0,8018,0
1387656268.723582,12,0,7978,0,8477,0,8290,0,8631,0,8653,0,7226,0,9026,0,9033,0,8350,0,8551,0,40,0,8994,0,-3,0,8521,0,7707,0,8061,0
1387656268.73159,12,0,7997,0,8504,0,8321,0,8642,0,8689,0,7238,0,9031,0,9035,0,8372,0,8578,0,41,0,8976,0,-3,0,8526,0,7710,0,8097,0
1387656268.739612,11,0,8024,0,8538,0,8348,0,8637,0,8707,0,7223,0,9038,0,9024,0,8376,0,8556,0,42,0,8969,0,-2,0,8521,0,7729,0,8106,0
1387656268.747597,9,0,8064,0,8534,0,8371,0,8645,0,8711,0,7205,0,9067,0,9028,0,8378,0,8503,0,43,0,8972,0,-1,0,8532,0,7770,0,8093,0
1387656268.755584,4,0,8168,0,8577,0,8448,0,8659,0,8765,0,7214,0,9176,0,9062,0,8431,0,8478,0,44,0,8988,0,-1,0,8603,0,7897,0,8111,0
1387656268.762608,0,0,8253,0,8666,0,8543,0,8642,0,8830,0,7226,0,9287,0,9102,0,8486,0,8492,0,45,0,9017,0,-1,0,8692,0,8035,0,8158,0
1387656268.770604,-3,0,8191,0,8684,0,8543,0,8644,0,8812,0,7214,0,9275,0,9105,0,8463,0,8498,0,46,0,9017,0,-2,0,8703,0,8019,0,8166,0
1387656268.778604,-4,0,8054,0,8647,0,8440,0,8693,0,8748,0,7212,0,9197,0,9082,0,8403,0,8501,0,47,0,8988,0,-2,0,8657,0,7852,0,8127,0
1387656268.786591,-4,0,7995,0,8634,0,8351,0,8716,0,8712,0,7223,0,9157,0,9062,0,8382,0,8534,0,48,0,8979,0,-2,0,8629,0,7714,0,8081,0
1387656268.794602,-3,0,8018,0,8636,0,8325,0,8677,0,8692,0,7216,0,9129,0,9048,0,8372,0,8562,0,49,0,8998,0,-2,0,8617,0,7715,0,8047,0
1387656268.801588,-1,0,8033,0,8611,0,8332,0,8640,0,8653,0,7205,0,9084,0,9035,0,8335,0,8521,0,50,0,9006,0,-2,0,8606,0,7784,0,8043,0
1387656268.809576,2,0,8011,0,8575,0,8350,0,8635,0,8624,0,7205,0,9057,0,9032,0,8305,0,8472,0,51,0,8993,0,-2,0,8619,0,7797,0,8056,0
1387656268.817592,5,0,7986,0,8561,0,8363,0,8634,0,8625,0,7195,0,9082,0,9043,0,8306,0,8480,0,52,0,8984,0,-2,0,8653,0,7755,0,8050,0
1387656268.825587,10,0,7983,0,8564,0,8360,0,8626,0,8628,0,7182,0,9127,0,9056,0,8320,0,8499,0,53,0,8980,0,-2,0,8667,0,7763,0,8045,0
1387656268.833591,11,0,7999,0,8546,0,8355,0,8636,0,8625,0,7186,0,9160,0,9065,0,8325,0,8464,0,54,0,8985,0,-4,0,8659,0,7807,0,8055,0
1387656268.841591,11,0,8051,0,8515,0,8365,0,8665,0,8638,0,7185,0,9171,0,9054,0,8332,0,8403,0,55,0,9004,0,-4,0,8654,0,7805,0,8050,0
1387656268.848592,10,0,8106,0,8519,0,8351,0,8657,0,8655,0,7171,0,9111,0,9039,0,8355,0,8369,0,56,0,9008,0,-4,0,8664,0,7734,0,8030,0
1387656268.8566,9,0,8097,0,8546,0,8311,0,8637,0,8658,0,7167,0,9014,0,9048,0,8372,0,8357,0,57,0,8988,0,-4,0,8682,0,7664,0,8034,0
1387656268.864597,9,0,8021,0,8579,0,8304,0,8650,0,8667,0,7168,0,8972,0,9062,0,8362,0,8367,0,58,0,8977,0,-4,0,8701,0,7666,0,8033,0
1387656268.87258,7,0,7950,0,8612,0,8323,0,8683,0,8665,0,7163,0,8961,0,9057,0,8358,0,8400,0,59,0,8991,0,-4,0,8697,0,7717,0,7992,0
1387656268.880592,6,0,7937,0,8628,0,8325,0,8732,0,8632,0,7173,0,8930,0,9042,0,8369,0,8443,0,60,0,9005,0,-3,0,8636,0,7750,0,7948,0
1387656268.887584,4,0,7964,0,8612,0,8310,0,8764,0,8619,0,7186,0,8944,0,9032,0,8368,0,8474,0,61,0,8999,0,-3,0,8600,0,7719,0,7941,0
1387656268.895586,3,0,7995,0,8598,0,8292,0,8748,0,8642,0,7184,0,9010,0,9037,0,8360,0,8509,0,62,0,8978,0,-3,0,8629,0,7648,0,7960,0
1387656268.909582,3,0,8020,0,8619,0,8255,0,8722,0,8656,0,7181,0,9043,0,9049,0,8359,0,8539,0,63,0,8970,0,-2,0,8650,0,7600,0,7979,0
1387656268.911586,3,0,8031,0,8648,0,8225,0,8724,0,8657,0,7186,0,9046,0,9049,0,8343,0,8533,0,63,0,8973,0,-2,0,8654,0,7607,0,8004,0
1387656268.919581,4,0,8019,0,8642,0,8262,0,8719,0,8666,0,7188,0,9082,0,9042,0,8320,0,8505,0,63,0,8970,0,-1,0,8642,0,7665,0,8052,0
1387656268.926876,5,0,7993,0,8602,0,8350,0,8697,0,8682,0,7188,0,9170,0,9023,0,8307,0,8496,0,63,0,8971,0,-1,0,8588,0,7753,0,8102,0
1387656268.935577,6,0,7960,0,8538,0,8436,0,8668,0,8725,0,7171,0,9310,0,8998,0,8288,0,8471,0,63,0,8967,0,-1,0,8519,0,7811,0,8151,0
1387656268.942628,5,0,7913,0,8501,0,8471,0,8643,0,8772,0,7145,0,9389,0,8991,0,8268,0,8433,0,63,0,8947,0,-1,0,8490,0,7805,0,8171,0
1387656268.950604,4,0,7888,0,8566,0,8433,0,8657,0,8733,0,7150,0,9289,0,9003,0,8282,0,8436,0,63,0,8947,0,-1,0,8513,0,7787,0,8107,0
1387656268.958599,3,0,7904,0,8679,0,8374,0,8707,0,8633,0,7179,0,9108,0,9027,0,8315,0,8467,0,63,0,8975,0,0,0,8584,0,7785,0,7992,0
1387656268.966598,2,0,7935,0,8710,0,8340,0,8740,0,8584,0,7198,0,9000,0,9044,0,8332,0,8476,0,63,0,8995,0,-1,0,8648,0,7760,0,7927,0
1387656268.974595,2,0,7976,0,8656,0,8315,0,8749,0,8581,0,7197,0,8952,0,9049,0,8347,0,8472,0,63,0,9002,0,-1,0,8664,0,7714,0,7933,0
1387656268.981589,2,0,8026,0,8595,0,8271,0,8748,0,8559,0,7194,0,8880,0,9061,0,8363,0,8509,0,63,0,9004,0,-1,0,8683,0,7678,0,7947,0
1387656268.990598,1,0,8063,0,8520,0,8239,0,8736,0,8552,0,7198,0,8830,0,9075,0,8362,0,8558,0,63,0,9003,0,-1,0,8706,0,7672,0,7967,0
1387656268.997625,-1,0,8072,0,8447,0,8243,0,8737,0,8582,0,7199,0,8850,0,9073,0,8350,0,8576,0,63,0,9002,0,-1,0,8700,0,7696,0,8005,0
1387656269.005733,-3,0,8078,0,8421,0,8274,0,8748,0,8610,0,7191,0,8891,0,9061,0,8344,0,8557,0,63,0,9001,0,-1,0,8669,0,7729,0,8039,0
1387656269.013603,-4,0,8080,0,8447,0,8323,0,8743,0,8625,0,7184,0,8916,0,9047,0,8337,0,8527,0,63,0,9002,0,0,0,8623,0,7759,0,8034,0
1387656269.02059,-4,0,8062,0,8486,0,8356,0,8726,0,8639,0,7184,0,8946,0,9031,0,8340,0,8489,0,63,0,9004,0,1,0,8575,0,7786,0,8010,0
1387656269.028591,-3,0,8038,0,8549,0,8340,0,8725,0,8625,0,7188,0,8976,0,9033,0,8357,0,8458,0,63,0,8999,0,2,0,8570,0,7795,0,8009,0
1387656269.036591,-2,0,8038,0,8633,0,8295,0,8730,0,8583,0,7195,0,8975,0,9051,0,8366,0,8448,0,63,0,9000,0,3,0,8606,0,7771,0,8019,0
1387656269.044587,-1,0,8042,0,8682,0,8263,0,8719,0,8565,0,7194,0,8982,0,9059,0,8365,0,8457,0,81,0,9007,0,2,0,8631,0,7738,0,8030,0
1387656269.052574,0,0,8029,0,8643,0,8251,0,8708,0,8572,0,7186,0,9021,0,9055,0,8374,0,8463,0,82,0,8999,0,1,0,8615,0,7714,0,8054,0
1387656269.060586,1,0,8032,0,8535,0,8214,0,8711,0,8597,0,7186,0,9043,0,9043,0,8401,0,8459,0,83,0,8982,0,0,0,8582,0,7677,0,8064,0
1387656269.067587,2,0,8074,0,8440,0,8143,0,8710,0,8654,0,7179,0,9042,0,9033,0,8415,0,8448,0,84,0,8976,0,0,0,8550,0,7625,0,8020,0
1387656269.075583,2,0,8104,0,8404,0,8108,0,8701,0,8696,0,7155,0,9057,0,9032,0,8408,0,8445,0,85,0,8977,0,-1,0,8521,0,7623,0,7954,0
1387656269.083607,1,0,8109,0,8422,0,8097,0,8706,0,8702,0,7147,0,9070,0,9032,0,8419,0,8448,0,86,0,8983,0,-1,0,8508,0,7653,0,7918,0
1387656269.091587,0,0,8164,0,8463,0,8068,0,8721,0,8724,0,7166,0,9009,0,9030,0,8442,0,8450,0,87,0,8998,0,-1,0,8516,0,7645,0,7917,0
1387656269.099587,-2,0,8243,0,8491,0,8074,0,8723,0,8747,0,7184,0,8914,0,9032,0,8434,0,8458,0,88,0,9006,0,-1,0,8540,0,7620,0,7949,0
1387656269.106595,-3,0,8225,0,8490,0,8125,0,8705,0,8724,0,7181,0,8885,0,9046,0,8417,0,8475,0,89,0,9000,0,-2,0,8575,0,7625,0,8010,0
1387656269.114601,-5,0,8133,0,8492,0,8164,0,8703,0,8677,0,7176,0,8911,0,9065,0,8413,0,8498,0,90,0,9000,0,-2,0,8610,0,7652,0,8064,0
1387656269.122595,-6,0,8104,0,8522,0,8191,0,8723,0,8637,0,7190,0,8909,0,9076,0,8391,0,8521,0,91,0,9010,0,-3,0,8630,0,7674,0,8080,0
1387656269.130605,-6,0,8115,0,8564,0,8242,0,8736,0,8604,0,7210,0,8885,0,9071,0,8361,0,8531,0,92,0,9024,0,-3,0,8625,0,7693,0,8045,0
1387656269.14471,-6,0,8103,0,8596,0,8283,0,8732,0,8578,0,7217,0,8887,0,9065,0,8353,0,8511,0,93,0,9027,0,-4,0,8617,0,7724,0,7995,0
1387656269.1466,-4,0,8094,0,8616,0,8297,0,8724,0,8565,0,7213,0,8904,0,9065,0,8336,0,8474,0,94,0,9019,0,-4,0,8624,0,7758,0,7966,0
1387656269.153611,-1,0,8091,0,8616,0,8309,0,8709,0,8572,0,7203,0,8922,0,9064,0,8293,0,8436,0,95,0,9015,0,-4,0,8631,0,7773,0,7962,0
1387656269.161587,1,0,8069,0,8588,0,8330,0,8688,0,8594,0,7186,0,8950,0,9061,0,8272,0,8409,0,96,0,9010,0,-4,0,8610,0,7778,0,7976,0
1387656269.169601,3,0,8040,0,8542,0,8347,0,8676,0,8609,0,7173,0,8964,0,9048,0,8281,0,8396,0,97,0,9002,0,-3,0,8574,0,7792,0,8007,0
1387656269.177737,2,0,8017,0,8524,0,8340,0,8670,0,8624,0,7176,0,8941,0,9036,0,8278,0,8406,0,98,0,9002,0,-2,0,8567,0,7783,0,8023,0
1387656269.185592,0,0,8014,0,8556,0,8334,0,8671,0,8637,0,7181,0,8909,0,9046,0,8276,0,8420,0,99,0,9005,0,-1,0,8589,0,7749,0,7995,0
1387656269.192588,-2,0,8033,0,8602,0,8316,0,8681,0,8631,0,7182,0,8885,0,9068,0,8295,0,8426,0,100,0,9002,0,-1,0,8599,0,7722,0,7950,0
1387656269.200594,-4,0,8054,0,8610,0,8277,0,8685,0,8628,0,7185,0,8873,0,9066,0,8307,0,8430,0,101,0,9000,0,-1,0,8585,0,7710,0,7932,0
1387656269.208583,-4,0,8073,0,8577,0,8254,0,8696,0,8640,0,7186,0,8891,0,9045,0,8305,0,8436,0,102,0,9001,0,-1,0,8578,0,7698,0,7943,0
1387656269.216587,-5,0,8094,0,8555,0,8247,0,8712,0,8652,0,7188,0,8910,0,9040,0,8312,0,8442,0,103,0,9002,0,-2,0,8584,0,7677,0,7964,0
1387656269.22461,-6,0,8103,0,8549,0,8242,0,8704,0,8644,0,7190,0,8919,0,9047,0,8315,0,8449,0,104,0,9004,0,-2,0,8591,0,7675,0,7992,0
1387656269.232588,-6,0,8091,0,8529,0,8248,0,8686,0,8635,0,7188,0,8949,0,9049,0,8312,0,8459,0,105,0,9000,0,-2,0,8587,0,7695,0,8025,0
1387656269.239585,-7,0,8077,0,8495,0,8262,0,8679,0,8646,0,7182,0,8996,0,9040,0,8318,0,8455,0,106,0,8999,0,-2,0,8574,0,7717,0,8051,0
1387656269.247587,-8,0,8079,0,8489,0,8280,0,8677,0,8647,0,7181,0,9008,0,9035,0,8326,0,8448,0,107,0,9001,0,-1,0,8565,0,7746,0,8046,0
1387656269.255608,-9,0,8085,0,8506,0,8313,0,8672,0,8626,0,7184,0,8988,0,9045,0,8333,0,8449,0,108,0,9002,0,-1,0,8575,0,7783,0,8015,0
1387656269.263593,-11,0,8080,0,8528,0,8339,0,8671,0,8615,0,7181,0,8958,0,9056,0,8335,0,8452,0,109,0,9002,0,-1,0,8600,0,7800,0,7986,0
1387656269.271578,-12,0,8068,0,8522,0,8329,0,8686,0,8619,0,7175,0,8907,0,9066,0,8348,0,8433,0,110,0,9003,0,-1,0,8625,0,7786,0,7972,0
1387656269.279588,-14,0,8061,0,8482,0,8302,0,8695,0,8628,0,7173,0,8854,0,9067,0,8386,0,8407,0,111,0,9000,0,0,0,8628,0,7767,0,7977,0
1387656269.286594,-12,0,8058,0,8443,0,8287,0,8685,0,8655,0,7166,0,8834,0,9068,0,8400,0,8392,0,112,0,8999,0,0,0,8603,0,7750,0,7999,0
1387656269.294726,-10,0,8060,0,8427,0,8292,0,8675,0,8682,0,7162,0,8842,0,9069,0,8379,0,8387,0,113,0,9001,0,0,0,8576,0,7738,0,8008,0
1387656269.302591,-10,0,8065,0,8465,0,8312,0,8689,0,8680,0,7167,0,8847,0,9056,0,8363,0,8378,0,114,0,8999,0,1,0,8569,0,7744,0,7998,0
1387656269.310713,-9,0,8049,0,8578,0,8327,0,8763,0,8657,0,7174,0,8864,0,9044,0,8342,0,8383,0,115,0,9000,0,1,0,8575,0,7761,0,7984,0
1387656269.318597,-9,0,8039,0,8599,0,8338,0,8791,0,8639,0,7175,0,8927,0,9052,0,8321,0,8402,0,116,0,9000,0,2,0,8590,0,7781,0,7984,0
1387656269.325598,-9,0,8032,0,8813,0,8334,0,8819,0,8605,0,7178,0,8956,0,9053,0,8304,0,8422,0,117,0,8985,0,2,0,8583,0,7769,0,7970,0
1387656269.333587,-8,0,7965,0,9478,0,8298,0,9176,0,8532,0,7182,0,8903,0,9027,0,8248,0,8454,0,118,0,8969,0,3,0,8547,0,7710,0,7916,0
1387656269.342595,-8,0,7904,0,9683,0,8295,0,9477,0,8518,0,7184,0,8889,0,9016,0,8217,0,8472,0,119,0,8966,0,3,0,8538,0,7703,0,7900,0
1387656269.356582,-7,0,7961,0,9025,0,8332,0,9193,0,8589,0,7173,0,8942,0,9035,0,8280,0,8462,0,120,0,8978,0,2,0,8572,0,7761,0,7954,0
1387656269.358606,-6,0,8044,0,8563,0,8328,0,8820,0,8630,0,7165,0,8951,0,9047,0,8340,0,8459,0,121,0,8997,0,1,0,8594,0,7771,0,7989,0
1387656269.365617,-5,0,8049,0,8670,0,8303,0,8825,0,8623,0,7174,0,8932,0,9047,0,8329,0,8450,0,122,0,9004,0,0,0,8587,0,7736,0,7975,0
1387656269.372579,-3,0,8042,0,8667,0,8315,0,8835,0,8636,0,7173,0,8936,0,9041,0,8323,0,8404,0,123,0,8994,0,0,0,8586,0,7742,0,7991,0
1387656269.380588,-3,0,8047,0,8567,0,8330,0,8735,0,8639,0,7160,0,8917,0,9035,0,8335,0,8382,0,124,0,8992,0,-1,0,8590,0,7767,0,8028,0
1387656269.388589,-4,0,8040,0,8620,0,8328,0,8762,0,8625,0,7165,0,8904,0,9034,0,8325,0,8415,0,125,0,8995,0,0,0,8590,0,7777,0,8022,0
1387656269.396589,-8,0,8036,0,8629,0,8343,0,8808,0,8623,0,7177,0,8943,0,9040,0,8304,0,8454,0,126,0,8995,0,0,0,8587,0,7804,0,7995,0
1387656269.404584,-12,0,8049,0,8592,0,8347,0,8803,0,8608,0,7175,0,8965,0,9041,0,8302,0,8465,0,127,0,8995,0,0,0,8587,0,7818,0,7981,0
1387656269.41159,-15,0,8062,0,8603,0,8341,0,8805,0,8589,0,7179,0,8964,0,9039,0,8307,0,8468,0,242,0,8996,0,0,0,8598,0,7802,0,7976,0
1387656269.419588,-17,0,8062,0,8649,0,8345,0,8790,0,8593,0,7194,0,8999,0,9052,0,8303,0,8471,0,242,0,8991,0,0,0,8619,0,7801,0,7970,0
1387656269.427813,-19,0,8046,0,8693,0,8334,0,8771,0,8592,0,7202,0,9036,0,9072,0,8307,0,8473,0,242,0,8986,0,0,0,8646,0,7810,0,7976,0
1387656269.435615,-20,0,8042,0,8683,0,8295,0,8746,0,8579,0,7200,0,9021,0,9082,0,8329,0,8479,0,242,0,8995,0,-1,0,8664,0,7779,0,8001,0
1387656269.443718,-21,0,8051,0,8631,0,8271,0,8741,0,8583,0,7196,0,8984,0,9073,0,8349,0,8502,0,242,0,9007,0,-1,0,8657,0,7727,0,8026,0
1387656269.451582,-21,0,8050,0,8588,0,8282,0,8744,0,8611,0,7195,0,8967,0,9059,0,8353,0,8519,0,242,0,9005,0,-1,0,8635,0,7724,0,8040,0
1387656269.458595,-20,0,8048,0,8566,0,8315,0,8727,0,8632,0,7191,0,8967,0,9058,0,8346,0,8483,0,242,0,9003,0,-1,0,8618,0,7784,0,8041,0
1387656269.466617,-19,0,8059,0,8557,0,8353,0,8706,0,8624,0,7185,0,8974,0,9068,0,8337,0,8424,0,242,0,9001,0,-2,0,8619,0,7850,0,8035,0
1387656269.474598,-18,0,8066,0,8534,0,8382,0,8691,0,8623,0,7167,0,8990,0,9069,0,8326,0,8374,0,242,0,8987,0,-1,0,8631,0,7882,0,8031,0
1387656269.4826,-17,0,8064,0,8499,0,8394,0,8685,0,8633,0,7147,0,8994,0,9061,0,8342,0,8350,0,242,0,8983,0,-1,0,8635,0,7871,0,8029,0
1387656269.490586,-17,0,8078,0,8470,0,8405,0,8690,0,8635,0,7151,0,8983,0,9063,0,8357,0,8354,0,242,0,9001,0,-1,0,8622,0,7854,0,8034,0
1387656269.498617,-17,0,8092,0,8466,0,8409,0,8689,0,8638,0,7156,0,8951,0,9070,0,8346,0,8371,0,242,0,9003,0,-1,0,8615,0,7853,0,8034,0
1387656269.505573,-19,0,8084,0,8480,0,8403,0,8688,0,8639,0,7147,0,8886,0,9071,0,8423,0,8365,0,242,0,8988,0,-1,0,8632,0,7865,0,8023,0
1387656269.513616,-20,0,8082,0,8482,0,8415,0,8692,0,8636,0,7156,0,8861,0,9077,0,8510,0,8338,0,242,0,8985,0,-1,0,8655,0,7896,0,8030,0
1387656269.521585,-22,0,8107,0,8477,0,8427,0,8677,0,8645,0,7171,0,8927,0,9084,0,8422,0,8311,0,242,0,8985,0,-1,0,8663,0,7925,0,8070,0
1387656269.529589,-24,0,8124,0,8474,0,8426,0,8646,0,8666,0,7159,0,8999,0,9083,0,8305,0,8301,0,242,0,8977,0,-2,0,8655,0,7928,0,8103,0
1387656269.53758,-25,0,8121,0,8480,0,8422,0,8640,0,8666,0,7147,0,9018,0,9082,0,8324,0,8328,0,242,0,8975,0,-3,0,8656,0,7906,0,8108,0
1387656269.544613,-24,0,8115,0,8476,0,8418,0,8646,0,8649,0,7163,0,9040,0,9086,0,8329,0,8401,0,16,0,8977,0,-3,0,8669,0,7906,0,8099,0
1387656269.55259,-23,0,8113,0,8469,0,8401,0,8649,0,8632,0,7183,0,9069,0,9094,0,8277,0,8465,0,17,0,8973,0,-3,0,8679,0,7922,0,8078,0
1387656269.560642,-22,0,8117,0,8472,0,8375,0,8652,0,8628,0,7186,0,9061,0,9100,0,8284,0,8479,0,18,0,8976,0,-3,0,8693,0,7917,0,8057,0
1387656269.568588,-23,0,8123,0,8491,0,8351,0,8654,0,8640,0,7190,0,9029,0,9097,0,8304,0,8461,0,19,0,8995,0,-2,0,8714,0,7883,0,8050,0
1387656269.576585,-24,0,8135,0,8512,0,8341,0,8667,0,8638,0,7193,0,9005,0,9096,0,8301,0,8438,0,20,0,8999,0,-2,0,8739,0,7863,0,8049,0
1387656269.584594,-24,0,8146,0,8528,0,8348,0,8686,0,8621,0,7185,0,9013,0,9119,0,8297,0,8423,0,21,0,8986,0,-2,0,8772,0,7873,0,8045,0
1387656269.591584,-23,0,8164,0,8528,0,8350,0,8683,0,8620,0,7183,0,9051,0,9134,0,8299,0,8421,0,22,0,8982,0,-2,0,8810,0,7880,0,8046,0
1387656269.599592,-22,0,8174,0,8525,0,8326,0,8677,0,8635,0,7190,0,9062,0,9122,0,8310,0,8428,0,23,0,8991,0,-3,0,8840,0,7861,0,8057,0
1387656269.60771,-20,0,8152,0,8540,0,8294,0,8672,0,8638,0,7190,0,9023,0,9125,0,8314,0,8438,0,24,0,8999,0,-3,0,8848,0,7819,0,8088,0
1387656269.615583,-19,0,8123,0,8562,0,8270,0,8655,0,8637,0,7199,0,8995,0,9129,0,8329,0,8450,0,25,0,9000,0,-4,0,8827,0,7761,0,8128,0
1387656269.62359,-18,0,8132,0,8580,0,8251,0,8655,0,8651,0,7216,0,8994,0,9102,0,8371,0,8461,0,26,0,9003,0,-4,0,8786,0,7717,0,8166,0
1387656269.630604,-16,0,8165,0,8584,0,8252,0,8661,0,8664,0,7217,0,8962,0,9085,0,8403,0,8471,0,27,0,9003,0,-4,0,8750,0,7718,0,8209,0
1387656269.638279,-16,0,8165,0,8584,0,8252,0,8661,0,8664,0,7217,0,8962,0,9085,0,8403,0,8471,0,27,0,9003,0,-4,0,8750,0,7718,0,8209,0
1387656269.646285,-15,0,8193,0,8592,0,8274,0,8657,0,8662,0,7218,0,8919,0,9108,0,8402,0,8490,0,28,0,8999,0,-4,0,8727,0,7756,0,8213,0
1387656269.654283,-13,0,8248,0,8629,0,8294,0,8673,0,8688,0,7241,0,8941,0,9113,0,8396,0,8529,0,29,0,9002,0,-3,0,8722,0,7817,0,8099,0
1387656269.66229,-12,0,8274,0,8642,0,8314,0,8694,0,8703,0,7250,0,8988,0,9136,0,8367,0,8552,0,30,0,9019,0,-2,0,8730,0,7841,0,8074,0
1387656269.67028,-11,0,8235,0,8610,0,8343,0,8676,0,8678,0,7238,0,8997,0,9265,0,8313,0,8558,0,31,0,9030,0,-1,0,8754,0,7821,0,7950,0
1387656269.677295,-11,0,8229,0,8648,0,8360,0,8682,0,8698,0,7245,0,9035,0,9371,0,8315,0,8590,0,32,0,9044,0,-1,0,8795,0,7884,0,7310,0
1387656269.685279,-10,0,8265,0,8705,0,8337,0,8710,0,8752,0,7258,0,9104,0,9313,0,8368,0,8613,0,33,0,9070,0,-1,0,8825,0,7971,0,7154,0
1387656269.693279,-7,0,8183,0,8648,0,8317,0,8702,0,8742,0,7250,0,9134,0,9210,0,8396,0,8575,0,34,0,9090,0,-1,0,8823,0,7906,0,7864,0
1387656269.701285,-7,0,7873,0,8588,0,8341,0,8693,0,8726,0,7245,0,9125,0,9226,0,8401,0,8532,0,35,0,9114,0,0,0,8799,0,7821,0,8207,0
1387656269.709278,-7,0,7397,0,8631,0,8404,0,8702,0,8770,0,7246,0,9111,0,9308,0,8415,0,8529,0,36,0,9154,0,0,0,8758,0,7908,0,7938,0
1387656269.716285,-8,0,7135,0,8645,0,8481,0,8687,0,8784,0,7220,0,9121,0,9342,0,8419,0,8523,0,37,0,9170,0,0,0,8722,0,8150,0,7855,0
1387656269.725282,-8,0,6594,0,8637,0,8551,0,8694,0,8786,0,7207,0,9186,0,9361,0,8429,0,8523,0,38,0,9149,0,1,0,8739,0,8521,0,7828,0
1387656269.732284,-8,0,5426,0,8670,0,8607,0,8734,0,8836,0,7228,0,9404,0,9433,0,8443,0,8546,0,39,0,9129,0,1,0,8803,0,8860,0,7664,0
1387656269.740279,-8,0,5458,0,8617,0,8593,0,8705,0,8798,0,7212,0,9620,0,9523,0,8386,0,8507,0,40,0,9109,0,1,0,8813,0,8822,0,7783,0
1387656269.748308,-6,0,6903,0,8513,0,8545,0,8623,0,8676,0,7167,0,9565,0,9567,0,8282,0,8414,0,41,0,9086,0,1,0,8767,0,8574,0,7925,0
1387656269.756279,-3,0,7406,0,8487,0,8560,0,8582,0,8613,0,7146,0,9705,0,9585,0,8200,0,8357,0,42,0,9100,0,0,0,8770,0,8656,0,7842,0
1387656269.763285,0,0,6926,0,8472,0,8565,0,8557,0,8596,0,7135,0,9963,0,9582,0,8163,0,8329,0,43,0,9142,0,-1,0,8813,0,9023,0,7732,0
1387656269.776278,3,0,7062,0,8428,0,8511,0,8503,0,8558,0,7120,0,9539,0,9506,0,8167,0,8304,0,44,0,9142,0,-2,0,8817,0,9165,0,7710,0
1387656269.779283,5,0,7344,0,8446,0,8500,0,8470,0,8504,0,7113,0,8859,0,9389,0,8186,0,8282,0,45,0,9118,0,-2,0,8828,0,8859,0,7766,0
1387656269.787278,7,0,7128,0,8390,0,8622,0,8459,0,8462,0,7060,0,8773,0,9319,0,8189,0,8204,0,46,0,9127,0,-3,0,8821,0,8460,0,7722,0
1387656269.795284,6,0,7037,0,8212,0,8674,0,8416,0,8444,0,6984,0,8909,0,9269,0,8165,0,8093,0,47,0,9124,0,-3,0,8754,0,8319,0,7647,0
1387656269.802278,4,0,7121,0,8198,0,8607,0,8409,0,8486,0,6992,0,8862,0,9165,0,8144,0,8079,0,48,0,9095,0,-4,0,8860,0,8237,0,7677,0
1387656269.819284,2,0,7189,0,8289,0,8975,0,8459,0,8540,0,7029,0,8759,0,9101,0,8155,0,8118,0,49,0,9106,0,-4,0,9097,0,7991,0,7750,0
1387656269.821277,0,0,7216,0,8255,0,9582,0,8498,0,8559,0,7028,0,8849,0,9190,0,8170,0,8139,0,50,0,9137,0,-4,0,9105,0,7819,0,7736,0
1387656269.826277,-3,0,7251,0,8281,0,9397,0,8565,0,8550,0,7071,0,9331,0,9273,0,8187,0,8236,0,51,0,9111,0,-4,0,8962,0,7808,0,7709,0
1387656269.834287,-5,0,7441,0,8488,0,8586,0,8670,0,8539,0,7176,0,9323,0,9313,0,8223,0,8567,0,52,0,9071,0,-4,0,9004,0,7729,0,7777,0
1387656269.842277,-7,0,7603,0,8621,0,8251,0,8700,0,8544,0,7226,0,8542,0,9448,0,8242,0,8696,0,53,0,9069,0,-4,0,9112,0,7779,0,7834,0
1387656269.849283,-9,0,7695,0,8614,0,8363,0,8663,0,8543,0,7203,0,8351,0,9522,0,8235,0,8168,0,54,0,9052,0,-3,0,9061,0,8044,0,7857,0
1387656269.857279,-9,0,7809,0,8607,0,8352,0,8673,0,8547,0,7181,0,8800,0,9431,0,8249,0,7708,0,55,0,9022,0,-2,0,8987,0,8016,0,7909,0
1387656269.865283,-9,0,7882,0,8580,0,8435,0,8705,0,8559,0,7169,0,8851,0,9336,0,8272,0,7990,0,56,0,9026,0,0,0,8972,0,7628,0,7951,0
1387656269.873278,-10,0,7900,0,8531,0,8737,0,8708,0,8577,0,7153,0,8755,0,9231,0,8289,0,8418,0,57,0,9040,0,1,0,8887,0,7269,0,7972,0
1387656269.881283,-11,0,7898,0,8511,0,8913,0,8702,0,8611,0,7154,0,8985,0,9089,0,8312,0,8431,0,58,0,9019,0,1,0,8745,0,7130,0,8008,0
1387656269.889315,-9,0,7884,0,8531,0,8841,0,8692,0,8633,0,7181,0,9127,0,9042,0,8320,0,8307,0,59,0,8997,0,1,0,8691,0,7267,0,8060,0
1387656269.896287,-6,0,7873,0,8546,0,8819,0,8676,0,8625,0,7194,0,9110,0,9038,0,8313,0,8219,0,60,0,8997,0,1,0,8693,0,7568,0,8090,0
1387656269.904323,-5,0,7823,0,8477,0,9155,0,8647,0,8612,0,7166,0,9233,0,8993,0,8296,0,8192,0,61,0,9004,0,1,0,8626,0,7689,0,8050,0
1387656269.912287,-4,0,7719,0,8381,0,9716,0,8609,0,8594,0,7123,0,9450,0,8983,0,8262,0,8290,0,62,0,9019,0,1,0,8556,0,7612,0,7970,0
1387656269.920282,-5,0,7674,0,8377,0,10252,0,8590,0,8571,0,7106,0,9448,0,8948,0,8236,0,8336,0,63,0,9032,0,1,0,8551,0,7712,0,7937,0
1387656269.928285,-5,0,7571,0,8254,0,11071,0,8528,0,8578,0,7062,0,9357,0,8868,0,8208,0,8159,0,63,0,9027,0,1,0,8452,0,7948,0,7849,0
1387656269.935279,-5,0,7336,0,7975,0,11801,0,8415,0,8613,0,6972,0,9490,0,8868,0,8173,0,7924,0,63,0,9024,0,0,0,8272,0,8026,0,7690,0
1387656269.94329,-6,0,7354,0,8072,0,10991,0,8449,0,8652,0,7006,0,9523,0,8905,0,8196,0,8012,0,63,0,9059,0,0,0,8338,0,8001,0,7728,0
1387656269.951285,-8,0,7675,0,8530,0,9156,0,8632,0,8705,0,7170,0,9283,0,8871,0,8267,0,8224,0,63,0,9121,0,-1,0,8591,0,8036,0,7954,0
1387656269.959277,-9,0,7864,0,8665,0,8293,0,8701,0,8748,0,7225,0,9248,0,8805,0,8302,0,8093,0,63,0,9164,0,-1,0,8636,0,8124,0,8053,0
1387656270.080324,-11,0,7783,0,8436,0,8342,0,8635,0,8770,0,7156,0,9811,0,8754,0,8279,0,7884,0,63,0,9171,0,-1,0,8515,0,8134,0,8002,0
1387656270.082283,-12,0,7639,0,8339,0,8202,0,8614,0,8815,0,7137,0,10474,0,8686,0,8246,0,7900,0,63,0,9182,0,-1,0,8506,0,8010,0,7980,0
1387656270.08528,-13,0,7568,0,8407,0,8000,0,8640,0,8838,0,7157,0,10352,0,8656,0,8265,0,7944,0,63,0,9234,0,-1,0,8564,0,7869,0,8014,0
1387656270.087279,-4,0,8471,0,8822,0,8240,0,8833,0,9096,0,7247,0,8420,0,8634,0,8454,0,4657,0,83,0,9564,0,-3,0,9361,0,7739,0,8286,0
1387656270.134288,-3,0,8322,0,8782,0,8159,0,8836,0,9033,0,7217,0,8358,0,8601,0,8332,0,5841,0,84,0,9608,0,-3,0,9804,0,7608,0,7982,0
1387656270.136279,-3,0,8323,0,8741,0,8255,0,8838,0,8960,0,7242,0,8270,0,8471,0,8232,0,6874,0,85,0,9653,0,-2,0,10188,0,7805,0,7747,0
1387656270.138277,-2,0,8704,0,8786,0,8582,0,8846,0,8893,0,7293,0,8241,0,8516,0,8285,0,7008,0,86,0,9637,0,-2,0,8982,0,8298,0,7695,0
1387656270.140278,9,0,7718,0,8631,0,8834,0,8790,0,8936,0,7366,0,8524,0,8331,0,8199,0,9669,0,90,0,9318,0,-3,0,6614,0,7921,0,7858,0
1387656270.142279,7,0,7822,0,8549,0,8697,0,8744,0,8882,0,7342,0,8649,0,8193,0,8224,0,10353,0,91,0,9065,0,-2,0,6795,0,7948,0,7765,0
1387656270.147287,4,0,7922,0,8560,0,8970,0,8741,0,8888,0,7306,0,8860,0,8031,0,8387,0,9729,0,92,0,8849,0,-1,0,6598,0,7978,0,7895,0
1387656270.155278,0,0,8196,0,8649,0,8744,0,8786,0,8869,0,7291,0,8990,0,8408,0,8516,0,8652,0,93,0,8746,0,0,0,6457,0,7928,0,8104,0
1387656270.169288,-2,0,8418,0,8653,0,8104,0,8789,0,8768,0,7270,0,9014,0,8895,0,8512,0,8479,0,94,0,8730,0,1,0,7302,0,7723,0,8137,0
1387656270.172278,-3,0,8357,0,8485,0,7988,0,8740,0,8701,0,7222,0,9090,0,9053,0,8493,0,8568,0,95,0,8741,0,2,0,8236,0,7516,0,8090,0
1387656270.179286,-3,0,8199,0,8349,0,8250,0,8708,0,8726,0,7175,0,9270,0,9101,0,8469,0,7967,0,96,0,8785,0,3,0,8409,0,7488,0,8100,0
1387656270.187278,-1,0,8156,0,8383,0,8261,0,8697,0,8741,0,7154,0,9418,0,9174,0,8415,0,7324,0,97,0,8857,0,2,0,8380,0,7586,0,8095,0
1387656270.194289,2,0,8121,0,8435,0,8212,0,8668,0,8681,0,7135,0,9440,0,9237,0,8385,0,7394,0,98,0,8914,0,1,0,8605,0,7603,0,8024,0
1387656270.203744,7,0,8049,0,8453,0,8283,0,8646,0,8619,0,7123,0,9378,0,9302,0,8373,0,7763,0,99,0,8965,0,1,0,8761,0,7559,0,7973,0
1387656270.224377,11,0,8056,0,8490,0,8236,0,8647,0,8586,0,7125,0,9246,0,9341,0,8352,0,8102,0,100,0,9041,0,0,0,8801,0,7563,0,7980,0
1387656270.226279,12,0,8070,0,8490,0,7999,0,8652,0,8509,0,7158,0,8990,0,9329,0,8297,0,9391,0,101,0,9102,0,0,0,8784,0,7530,0,7957,0
1387656270.232286,12,0,8105,0,8473,0,7928,0,8671,0,8451,0,7232,0,8697,0,9283,0,8246,0,10678,0,102,0,9087,0,0,0,8634,0,7503,0,7937,0
1387656270.240278,13,0,8263,0,8507,0,8332,0,8692,0,8518,0,7257,0,8496,0,9217,0,8278,0,10021,0,103,0,9023,0,0,0,8543,0,7601,0,8030,0
1387656270.249285,11,0,8316,0,8586,0,8840,0,8713,0,8585,0,7244,0,8335,0,9116,0,8331,0,9071,0,104,0,8970,0,0,0,8526,0,7744,0,8135,0
1387656270.251283,11,0,8089,0,8644,0,9086,0,8746,0,8562,0,7292,0,8406,0,8985,0,8331,0,9502,0,105,0,8926,0,1,0,8504,0,7798,0,8080,0
1387656270.258278,12,0,7749,0,8604,0,9446,0,8751,0,8597,0,7332,0,8746,0,8856,0,8330,0,9710,0,106,0,8882,0,1,0,8470,0,7770,0,7868,0
1387656270.270289,14,0,7429,0,8504,0,9893,0,8707,0,8706,0,7285,0,9009,0,8713,0,8370,0,9160,0,107,0,8872,0,1,0,8385,0,7780,0,7675,0
1387656270.272279,15,0,7362,0,8508,0,9618,0,8719,0,8788,0,7278,0,10012,0,8504,0,8432,0,9168,0,108,0,8921,0,0,0,8400,0,7860,0,7674,0
1387656270.280288,15,0,7357,0,8351,0,8596,0,8681,0,8838,0,7231,0,12688,0,8214,0,8365,0,9215,0,109,0,8963,0,0,0,8372,0,7907,0,7626,0
1387656270.288278,14,0,6876,0,7627,0,7160,0,8385,0,9109,0,6956,0,15567,0,7969,0,8185,0,8617,0,110,0,8899,0,0,0,7925,0,7867,0,7602,0
1387656270.295285,9,0,6731,0,7164,0,5630,0,8285,0,9769,0,6814,0,15239,0,7983,0,8326,0,8404,0,111,0,8869,0,1,0,7693,0,7814,0,8402,0
1387656270.303282,6,0,7458,0,7844,0,5297,0,8651,0,9847,0,7063,0,12321,0,8200,0,8663,0,8923,0,112,0,9024,0,2,0,8289,0,7692,0,9177,0
1387656270.311285,3,0,7802,0,8636,0,6176,0,8857,0,8704,0,7238,0,11274,0,8372,0,8555,0,9316,0,113,0,9155,0,2,0,8828,0,7596,0,8448,0
1387656270.31928,5,0,7481,0,8404,0,6718,0,8663,0,7715,0,7119,0,12327,0,8464,0,8227,0,9055,0,114,0,9063,0,2,0,8617,0,7814,0,7371,0
1387656270.327287,9,0,7479,0,7846,0,7175,0,8525,0,7804,0,7038,0,12108,0,8607,0,8246,0,8720,0,115,0,8914,0,2,0,8303,0,8142,0,7299,0
1387656270.335279,14,0,7696,0,7814,0,8037,0,8574,0,8107,0,7097,0,10537,0,8846,0,8409,0,8691,0,116,0,8884,0,1,0,8371,0,8138,0,7478,0
1387656270.342278,18,0,7798,0,7982,0,8213,0,8632,0,8168,0,7141,0,9662,0,9135,0,8412,0,8730,0,117,0,8892,0,0,0,8561,0,7842,0,7454,0
1387656270.350285,18,0,7995,0,8027,0,7951,0,8701,0,8338,0,7099,0,9353,0,9362,0,8368,0,8760,0,118,0,8882,0,-1,0,8657,0,7614,0,7592,0
1387656270.358278,17,0,8043,0,7995,0,8304,0,8772,0,8519,0,6960,0,9198,0,9419,0,8342,0,8768,0,119,0,8876,0,-1,0,8631,0,7607,0,7702,0
1387656270.366286,14,0,7891,0,7869,0,8683,0,8787,0,8585,0,6814,0,9439,0,9363,0,8306,0,8710,0,120,0,8868,0,-1,0,8569,0,7717,0,7704,0
1387656270.374279,11,0,7754,0,7698,0,8855,0,8734,0,8593,0,6760,0,9631,0,9230,0,8275,0,8592,0,121,0,8843,0,-1,0,8525,0,7807,0,7666,0
1387656270.381284,8,0,7496,0,7545,0,9422,0,8675,0,8534,0,6784,0,9767,0,9007,0,8223,0,8443,0,122,0,8805,0,-1,0,8428,0,7895,0,7447,0
1387656270.38928,5,0,7202,0,7416,0,9817,0,8707,0,8526,0,6875,0,10042,0,8754,0,8184,0,8404,0,123,0,8783,0,-2,0,8339,0,8002,0,7215,0
1387656270.397286,2,0,6951,0,7268,0,9667,0,8735,0,8567,0,7000,0,10314,0,8560,0,8216,0,8496,0,124,0,8740,0,-2,0,8318,0,8013,0,7112,0
1387656270.405278,0,0,6795,0,7170,0,9521,0,8698,0,8607,0,7087,0,10241,0,8583,0,8207,0,8606,0,125,0,8673,0,-2,0,8278,0,8009,0,7093,0
1387656270.413273,-4,0,6965,0,7323,0,9334,0,8682,0,8730,0,7118,0,9959,0,8878,0,8049,0,8869,0,126,0,8663,0,-3,0,8227,0,8178,0,7114,0
1387656270.421281,-6,0,7435,0,7751,0,8781,0,8667,0,8885,0,7130,0,9840,0,9178,0,7941,0,9279,0,127,0,8726,0,-3,0,8347,0,8284,0,7220,0
1387656270.428284,-7,0,7826,0,8231,0,8065,0,8623,0,9043,0,7152,0,9589,0,9281,0,8021,0,9482,0,242,0,8766,0,-3,0,8574,0,7944,0,7559,0
1387656270.437281,-7,0,7739,0,8599,0,7594,0,8628,0,9177,0,7193,0,9119,0,9341,0,8071,0,9516,0,242,0,8752,0,-3,0,8687,0,7408,0,8098,0
1387656270.444283,-7,0,7381,0,8872,0,7531,0,8691,0,9076,0,7238,0,8865,0,9398,0,8061,0,9636,0,242,0,8766,0,-3,0,8697,0,7128,0,8475,0
1387656270.452278,-6,0,7467,0,9020,0,7733,0,8727,0,8811,0,7277,0,8789,0,9292,0,8220,0,9499,0,242,0,8812,0,-3,0,8712,0,7013,0,8444,0
1387656270.460279,-4,0,7964,0,8999,0,7824,0,8742,0,8721,0,7291,0,8656,0,9142,0,8448,0,8944,0,242,0,8848,0,-3,0,8734,0,6926,0,8246,0
1387656270.467282,-2,0,8173,0,8865,0,7788,0,8784,0,8765,0,7281,0,8561,0,9152,0,8525,0,8558,0,242,0,8879,0,-3,0,8741,0,6941,0,8186,0
1387656270.475278,0,0,8131,0,8725,0,7913,0,8800,0,8741,0,7284,0,8533,0,9241,0,8521,0,8527,0,242,0,8918,0,-3,0,8722,0,7036,0,8194,0
1387656270.484303,1,0,8274,0,8669,0,8033,0,8770,0,8764,0,7289,0,8459,0,9279,0,8545,0,8508,0,242,0,8944,0,-2,0,8681,0,7168,0,8157,0
1387656270.491281,1,0,8405,0,8635,0,8079,0,8762,0,8839,0,7283,0,8400,0,9293,0,8555,0,8454,0,242,0,8944,0,-2,0,8643,0,7303,0,8151,0
1387656270.499286,1,0,8372,0,8587,0,8187,0,8771,0,8796,0,7270,0,8414,0,9323,0,8526,0,8434,0,242,0,8943,0,-1,0,8585,0,7341,0,8190,0
1387656270.50728,2,0,8318,0,8569,0,8244,0,8764,0,8709,0,7256,0,8445,0,9327,0,8500,0,8416,0,242,0,8942,0,0,0,8523,0,7332,0,8206,0
1387656270.514284,2,0,8260,0,8570,0,8208,0,8756,0,8648,0,7234,0,8501,0,9311,0,8489,0,8384,0,242,0,8934,0,0,0,8476,0,7366,0,8212,0
1387656270.522277,2,0,8194,0,8561,0,8191,0,8749,0,8543,0,7201,0,8549,0,9294,0,8479,0,8351,0,242,0,8921,0,0,0,8404,0,7408,0,8214,0
1387656270.530284,1,0,8132,0,8560,0,8237,0,8731,0,8410,0,7174,0,8550,0,9275,0,8476,0,8347,0,242,0,8913,0,0,0,8360,0,7457,0,8198,0
1387656270.538278,2,0,8068,0,8586,0,8277,0,8725,0,8346,0,7156,0,8524,0,9263,0,8482,0,8365,0,242,0,8912,0,0,0,8394,0,7535,0,8180,0
1387656270.546283,3,0,7979,0,8594,0,8295,0,8723,0,8382,0,7143,0,8552,0,9239,0,8469,0,8364,0,242,0,8903,0,1,0,8394,0,7626,0,8179,0
1387656270.555318,1,0,7867,0,8538,0,8341,0,8694,0,8465,0,7116,0,8677,0,9200,0,8403,0,8349,0,242,0,8897,0,1,0,8313,0,7682,0,8232,0
1387656270.568286,0,0,7791,0,8494,0,8410,0,8656,0,8535,0,7089,0,8738,0,9176,0,8318,0,8348,0,16,0,8904,0,1,0,8307,0,7732,0,8332,0
1387656270.570277,-3,0,7787,0,8519,0,8429,0,8643,0,8567,0,7105,0,8617,0,9160,0,8306,0,8358,0,17,0,8908,0,1,0,8440,0,7872,0,8357,0
1387656270.577277,-5,0,7886,0,8542,0,8432,0,8640,0,8575,0,7146,0,8480,0,9147,0,8321,0,8342,0,18,0,8914,0,1,0,8558,0,8009,0,8297,0
1387656270.58528,-6,0,8063,0,8528,0,8541,0,8620,0,8599,0,7173,0,8458,0,9145,0,8324,0,8290,0,19,0,8930,0,0,0,8580,0,7973,0,8283,0
1387656270.599284,-6,0,8078,0,8524,0,8605,0,8589,0,8674,0,7205,0,8469,0,9138,0,8342,0,8289,0,20,0,8943,0,-1,0,8578,0,7897,0,8307,0
1387656270.606278,-7,0,7987,0,8519,0,8502,0,8582,0,8758,0,7240,0,8537,0,9133,0,8319,0,8210,0,21,0,8944,0,-1,0,8601,0,7987,0,8354,0
1387656270.608278,-8,0,8222,0,8527,0,8477,0,8597,0,8743,0,7240,0,8672,0,9154,0,8303,0,7670,0,22,0,8943,0,-3,0,8651,0,8034,0,8422,0
1387656270.616284,-9,0,8614,0,8583,0,8523,0,8579,0,8681,0,7247,0,8693,0,9183,0,8346,0,7162,0,23,0,8940,0,-3,0,8694,0,7831,0,8401,0
1387656270.62428,-9,0,8656,0,8654,0,8448,0,8565,0,8767,0,7315,0,8648,0,9219,0,8382,0,6701,0,24,0,8934,0,-3,0,8738,0,7645,0,8357,0
1387656270.632282,-8,0,8632,0,8751,0,8438,0,8622,0,9000,0,7359,0,8750,0,9300,0,8454,0,4728,0,25,0,8944,0,-3,0,8862,0,7730,0,8518,0
1387656270.640587,0,0,8990,0,9007,0,8655,0,8765,0,9208,0,7182,0,8791,0,9402,0,8578,0,1706,0,27,0,9012,0,-1,0,9052,0,7866,0,8695,0
1387656270.647587,3,0,8671,0,8837,0,8560,0,8738,0,9104,0,7212,0,8643,0,9314,0,8425,0,4503,0,28,0,9006,0,-1,0,8917,0,7729,0,8455,0
1387656270.66859,4,0,8426,0,8524,0,8450,0,8740,0,9130,0,7311,0,8540,0,9232,0,8311,0,7025,0,29,0,8950,0,-1,0,8755,0,7638,0,8277,0
1387656270.670594,4,0,8393,0,8328,0,8365,0,8789,0,9183,0,7308,0,8464,0,9206,0,8258,0,8196,0,30,0,8902,0,-1,0,8651,0,7598,0,8173,0
1387656270.672576,2,0,8340,0,8283,0,8316,0,8795,0,9038,0,7344,0,8431,0,9177,0,8216,0,8957,0,31,0,8905,0,0,0,8620,0,7553,0,8076,0
1387656270.679584,1,0,8268,0,8266,0,8301,0,8752,0,8877,0,7461,0,8466,0,9128,0,8219,0,9341,0,32,0,8917,0,0,0,8597,0,7520,0,8050,0
1387656270.686596,-1,0,8261,0,8260,0,8337,0,8750,0,8858,0,7395,0,8531,0,9105,0,8266,0,9300,0,33,0,8895,0,0,0,8546,0,7549,0,8108,0
1387656270.694639,-2,0,8236,0,8306,0,8387,0,8768,0,8807,0,7142,0,8571,0,9110,0,8319,0,9327,0,34,0,8875,0,1,0,8538,0,7604,0,8129,0
1387656270.702598,-3,0,8166,0,8349,0,8369,0,8744,0,8691,0,6976,0,8587,0,9105,0,8341,0,9528,0,35,0,8884,0,1,0,8542,0,7627,0,8107,0
1387656270.710722,-4,0,8121,0,8371,0,8315,0,8728,0,8625,0,6986,0,8573,0,9093,0,8363,0,9557,0,36,0,8902,0,0,0,8495,0,7631,0,8103,0
1387656270.7186,-7,0,8098,0,8398,0,8309,0,8723,0,8594,0,7080,0,8530,0,9087,0,8390,0,9421,0,37,0,8905,0,0,0,8463,0,7657,0,8098,0
1387656270.726601,-9,0,8106,0,8407,0,8330,0,8701,0,8567,0,7167,0,8468,0,9073,0,8391,0,9366,0,38,0,8892,0,0,0,8453,0,7720,0,8079,0
1387656270.733587,-10,0,8192,0,8402,0,8339,0,8664,0,8568,0,7201,0,8419,0,9054,0,8369,0,9373,0,39,0,8885,0,-1,0,8430,0,7775,0,8069,0
1387656270.74158,-10,0,8341,0,8415,0,8299,0,8641,0,8611,0,7230,0,8399,0,9051,0,8345,0,9232,0,40,0,8880,0,-1,0,8455,0,7773,0,8085,0
1387656270.761587,-8,0,8447,0,8422,0,8195,0,8645,0,8697,0,7284,0,8388,0,9071,0,8343,0,9081,0,41,0,8878,0,-1,0,8509,0,7727,0,8122,0
1387656270.763573,-6,0,8453,0,8395,0,8164,0,8658,0,8799,0,7305,0,8389,0,9092,0,8347,0,9091,0,42,0,8894,0,-1,0,8513,0,7673,0,8157,0
1387656270.765579,-6,0,8412,0,8370,0,8177,0,8660,0,8874,0,7351,0,8421,0,9104,0,8317,0,9097,0,43,0,8911,0,-1,0,8526,0,7679,0,8177,0
1387656270.773575,-8,0,8399,0,8376,0,8085,0,8652,0,8915,0,7409,0,8481,0,9124,0,8262,0,9066,0,44,0,8917,0,-1,0,8582,0,7738,0,8210,0
1387656270.780586,-12,0,8407,0,8393,0,8003,0,8642,0,8965,0,7372,0,8531,0,9159,0,8269,0,9069,0,45,0,8927,0,-2,0,8617,0,7708,0,8284,0
1387656270.788586,-16,0,8393,0,8426,0,7978,0,8629,0,9034,0,7307,0,8534,0,9184,0,8377,0,9050,0,46,0,8948,0,-2,0,8632,0,7566,0,8391,0
1387656270.796584,-17,0,8361,0,8501,0,7867,0,8639,0,9046,0,7312,0,8495,0,9202,0,8454,0,9082,0,47,0,8968,0,-1,0,8656,0,7493,0,8467,0
1387656270.80502,-16,0,8361,0,8574,0,7761,0,8686,0,9006,0,7316,0,8440,0,9214,0,8428,0,9152,0,48,0,8982,0,-1,0,8663,0,7515,0,8463,0
1387656270.812715,-14,0,8399,0,8639,0,7833,0,8723,0,9008,0,7281,0,8386,0,9191,0,8419,0,9053,0,49,0,8983,0,-1,0,8647,0,7473,0,8433,0
1387656270.819587,-11,0,8421,0,8702,0,7945,0,8728,0,9042,0,7277,0,8337,0,9150,0,8472,0,8950,0,50,0,8978,0,-1,0,8634,0,7476,0,8416,0
1387656270.827601,-8,0,8393,0,8693,0,7904,0,8731,0,9031,0,7299,0,8325,0,9142,0,8493,0,9067,0,51,0,8978,0,0,0,8620,0,7674,0,8347,0
1387656270.835581,-6,0,8383,0,8653,0,7720,0,8749,0,9017,0,7325,0,8325,0,9113,0,8484,0,9189,0,52,0,8959,0,0,0,8633,0,7914,0,8256,0
1387656270.843584,-4,0,8464,0,8753,0,7496,0,8777,0,9069,0,7378,0,8223,0,9024,0,8502,0,9191,0,53,0,8940,0,0,0,8686,0,7953,0,8223,0
1387656270.851593,-2,0,8559,0,8947,0,7320,0,8824,0,9131,0,7447,0,8128,0,8962,0,8515,0,9259,0,54,0,8923,0,0,0,8669,0,7728,0,8222,0
1387656270.859583,1,0,8578,0,9030,0,7158,0,8864,0,9119,0,7539,0,8156,0,8922,0,8508,0,9349,0,55,0,8867,0,1,0,8595,0,7662,0,8219,0
1387656270.866607,4,0,8538,0,9021,0,7004,0,8843,0,9003,0,7587,0,8198,0,8858,0,8479,0,9279,0,56,0,8828,0,1,0,8610,0,8168,0,8195,0
1387656270.874599,5,0,8513,0,9070,0,7051,0,8783,0,8893,0,7533,0,8251,0,8907,0,8431,0,9138,0,57,0,8890,0,1,0,8700,0,8161,0,8175,0
1387656270.882601,4,0,8519,0,9141,0,7396,0,8747,0,8913,0,7480,0,8419,0,9020,0,8400,0,9079,0,58,0,8981,0,1,0,8762,0,6859,0,8224,0
1387656270.890595,2,0,8469,0,9065,0,7790,0,8739,0,8922,0,7463,0,8584,0,8985,0,8407,0,9095,0,59,0,8994,0,1,0,8784,0,6001,0,8259,0
1387656270.898603,0,0,8336,0,8824,0,7955,0,8712,0,8764,0,7402,0,8616,0,8928,0,8416,0,9064,0,60,0,8971,0,1,0,8754,0,6844,0,8178,0
1387656270.905589,-2,0,8242,0,8603,0,7979,0,8669,0,8606,0,7318,0,8645,0,9026,0,8402,0,8976,0,61,0,8973,0,1,0,8704,0,7613,0,8105,0
1387656270.91359,-2,0,8260,0,8510,0,8073,0,8645,0,8615,0,7269,0,8718,0,9131,0,8398,0,8930,0,62,0,8980,0,1,0,8698,0,7187,0,8127,0
1387656270.921584,-2,0,8278,0,8469,0,8173,0,8632,0,8649,0,7231,0,8770,0,9142,0,8397,0,8934,0,63,0,8967,0,1,0,8687,0,6888,0,8137,0
1387656270.929616,-1,0,8234,0,8432,0,8202,0,8626,0,8611,0,7211,0,8795,0,9140,0,8378,0,8944,0,63,0,8942,0,1,0,8652,0,7190,0,8092,0
1387656270.937609,-1,0,8202,0,8438,0,8216,0,8641,0,8603,0,7227,0,8792,0,9145,0,8377,0,8915,0,63,0,8937,0,0,0,8650,0,7311,0,8067,0
1387656270.945601,-1,0,8202,0,8488,0,8180,0,8668,0,8661,0,7244,0,8779,0,9136,0,8395,0,8863,0,63,0,8944,0,0,0,8677,0,7215,0,8089,0
1387656270.952582,0,0,8212,0,8544,0,8070,0,8687,0,8695,0,7252,0,8774,0,9120,0,8396,0,8841,0,63,0,8942,0,0,0,8703,0,7268,0,8113,0
1387656270.960603,1,0,8226,0,8583,0,7939,0,8702,0,8663,0,7268,0,8800,0,9096,0,8409,0,8835,0,63,0,8938,0,0,0,8715,0,7346,0,8103,0
1387656270.968587,1,0,8252,0,8604,0,7841,0,8705,0,8635,0,7279,0,8828,0,9078,0,8435,0,8810,0,63,0,8941,0,-1,0,8721,0,7308,0,8095,0
1387656270.976586,2,0,8269,0,8600,0,7779,0,8686,0,8644,0,7276,0,8840,0,9068,0,8421,0,8782,0,63,0,8945,0,-1,0,8718,0,7327,0,8103,0
1387656270.984587,3,0,8260,0,8586,0,7738,0,8668,0,8643,0,7273,0,8852,0,9060,0,8403,0,8760,0,63,0,8941,0,-1,0,8695,0,7378,0,8101,0
1387656270.991583,4,0,8229,0,8576,0,7786,0,8661,0,8623,0,7262,0,8841,0,9068,0,8408,0,8729,0,63,0,8941,0,-1,0,8664,0,7413,0,8100,0
1387656270.999591,5,0,8197,0,8581,0,7973,0,8649,0,8604,0,7252,0,8794,0,9103,0,8391,0,8691,0,63,0,8955,0,-1,0,8657,0,7431,0,8104,0
1387656271.007587,4,0,8180,0,8588,0,8151,0,8630,0,8591,0,7251,0,8764,0,9140,0,8363,0,8632,0,63,0,8971,0,-1,0,8650,0,7445,0,8097,0
1387656271.015625,2,0,8165,0,8583,0,8165,0,8615,0,8595,0,7245,0,8763,0,9148,0,8362,0,8552,0,63,0,8974,0,-1,0,8633,0,7463,0,8093,0
1387656271.023584,0,0,8146,0,8571,0,8159,0,8610,0,8604,0,7228,0,8742,0,9142,0,8375,0,8502,0,63,0,8975,0,-1,0,8633,0,7476,0,8097,0
1387656271.031584,-3,0,8119,0,8549,0,8279,0,8618,0,8565,0,7211,0,8692,0,9156,0,8380,0,8498,0,63,0,8976,0,0,0,8641,0,7480,0,8080,0
1387656271.038621,-6,0,8066,0,8517,0,8399,0,8616,0,8513,0,7198,0,8668,0,9163,0,8379,0,8510,0,63,0,8974,0,-1,0,8640,0,7529,0,8052,0
1387656271.046602,-7,0,8004,0,8484,0,8436,0,8593,0,8476,0,7180,0,8703,0,9147,0,8358,0,8523,0,63,0,8967,0,-1,0,8638,0,7611,0,8049,0
1387656271.054595,-8,0,7972,0,8468,0,8469,0,8575,0,8384,0,7165,0,8757,0,9138,0,8329,0,8533,0,63,0,8956,0,-1,0,8641,0,7656,0,8059,0
1387656271.062598,-8,0,7952,0,8461,0,8526,0,8556,0,8281,0,7152,0,8806,0,9140,0,8308,0,8515,0,81,0,8950,0,-1,0,8626,0,7739,0,8050,0
1387656271.070597,-8,0,7954,0,8446,0,8503,0,8529,0,8291,0,7155,0,8831,0,9139,0,8292,0,8499,0,82,0,8948,0,-1,0,8601,0,7830,0,8055,0
1387656271.078633,-9,0,8021,0,8467,0,8407,0,8507,0,8372,0,7172,0,8796,0,9142,0,8298,0,8525,0,83,0,8941,0,-1,0,8616,0,7791,0,8087,0
1387656271.086619,-8,0,8093,0,8540,0,8350,0,8478,0,8436,0,7183,0,8739,0,9146,0,8326,0,8548,0,84,0,8938,0,-1,0,8626,0,7703,0,8087,0
1387656271.093585,-9,0,8110,0,8565,0,8305,0,8446,0,8509,0,7186,0,8698,0,9136,0,8348,0,8540,0,85,0,8943,0,-1,0,8597,0,7720,0,8069,0
1387656271.101587,-9,0,8117,0,8542,0,8221,0,8436,0,8564,0,7198,0,8661,0,9127,0,8351,0,8533,0,86,0,8942,0,0,0,8616,0,7756,0,8083,0
1387656271.109587,-9,0,8148,0,8554,0,8164,0,8463,0,8537,0,7223,0,8638,0,9132,0,8349,0,8553,0,87,0,8940,0,0,0,8669,0,7775,0,8099,0
1387656271.117584,-8,0,8158,0,8551,0,8174,0,8507,0,8489,0,7225,0,8628,0,9127,0,8355,0,8568,0,88,0,8956,0,0,0,8661,0,7858,0,8091,0
1387656271.124591,-7,0,8167,0,8479,0,8211,0,8523,0,8486,0,7197,0,8639,0,9110,0,8373,0,8549,0,89,0,8974,0,0,0,8659,0,7873,0,8103,0
1387656271.132583,-5,0,8196,0,8435,0,8265,0,8484,0,8495,0,7180,0,8692,0,9110,0,8379,0,8521,0,90,0,8970,0,0,0,8676,0,7772,0,8129,0
1387656271.140583,-3,0,8185,0,8463,0,8332,0,8419,0,8492,0,7174,0,8756,0,9135,0,8355,0,8515,0,91,0,8949,0,0,0,8637,0,7708,0,8124,0
1387656271.1486,-2,0,8130,0,8458,0,8411,0,8385,0,8517,0,7155,0,8785,0,9155,0,8341,0,8511,0,92,0,8936,0,0,0,8605,0,7704,0,8105,0
1387656271.156588,0,0,8089,0,8391,0,8503,0,8414,0,8584,0,7141,0,8772,0,9156,0,8347,0,8488,0,93,0,8946,0,0,0,8599,0,7728,0,8090,0
1387656271.164587,1,0,8079,0,8358,0,8545,0,8485,0,8642,0,7145,0,8758,0,9154,0,8349,0,8489,0,94,0,8970,0,0,0,8555,0,7745,0,8067,0
1387656271.171586,1,0,8102,0,8365,0,8525,0,8525,0,8650,0,7142,0,8793,0,9144,0,8360,0,8507,0,95,0,8968,0,0,0,8527,0,7703,0,8046,0
1387656271.17961,0,0,8127,0,8333,0,8526,0,8552,0,8626,0,7131,0,8866,0,9130,0,8346,0,8511,0,96,0,8940,0,0,0,8522,0,7665,0,8039,0
1387656271.187612,0,0,8140,0,8264,0,8548,0,8588,0,8622,0,7130,0,8888,0,9145,0,8304,0,8527,0,97,0,8944,0,0,0,8488,0,7735,0,8050,0
1387656271.195581,-1,0,8174,0,8222,0,8544,0,8577,0,8632,0,7150,0,8821,0,9180,0,8281,0,8574,0,98,0,8973,0,1,0,8465,0,7905,0,8080,0
1387656271.203588,-1,0,8169,0,8243,0,8515,0,8564,0,8609,0,7180,0,8782,0,9200,0,8251,0,8615,0,99,0,8981,0,1,0,8447,0,8022,0,8110,0
1387656271.210597,-3,0,8022,0,8352,0,8401,0,8599,0,8526,0,7159,0,8873,0,9186,0,8186,0,8583,0,100,0,8986,0,2,0,8368,0,8124,0,8048,0
1387656271.218608,-5,0,7805,0,8430,0,8294,0,8574,0,8446,0,7052,0,9037,0,9136,0,8099,0,8442,0,101,0,9014,0,2,0,8243,0,8255,0,7899,0
1387656271.226602,-7,0,7664,0,8463,0,8424,0,8493,0,8425,0,6935,0,9109,0,9063,0,8014,0,8268,0,102,0,9051,0,1,0,8175,0,8123,0,7823,0
1387656271.2346,-10,0,7608,0,8634,0,8658,0,8556,0,8417,0,6922,0,9048,0,9001,0,8005,0,8255,0,103,0,9038,0,0,0,8213,0,7844,0,7767,0
1387656271.242599,-12,0,7622,0,8724,0,8684,0,8703,0,8433,0,6989,0,8978,0,8951,0,8096,0,8360,0,104,0,8966,0,0,0,8253,0,7890,0,7661,0
1387656271.250598,-12,0,7653,0,8525,0,8557,0,8690,0,8485,0,7011,0,8972,0,8891,0,8156,0,8363,0,105,0,8935,0,0,0,8252,0,8147,0,7693,0
1387656271.257582,-12,0,7665,0,8390,0,8430,0,8600,0,8491,0,6972,0,8990,0,8837,0,8125,0,8292,0,106,0,8978,0,0,0,8300,0,8129,0,7848,0
1387656271.265598,-11,0,7658,0,8562,0,8284,0,8630,0,8410,0,6941,0,8947,0,8820,0,8079,0,8257,0,107,0,9007,0,0,0,8363,0,8049,0,7818,0
1387656271.273619,-11,0,7701,0,8617,0,8200,0,8638,0,8393,0,6959,0,8882,0,8869,0,8103,0,8272,0,108,0,9007,0,0,0,8411,0,8070,0,7743,0
1387656271.281586,-11,0,7770,0,8604,0,8157,0,8576,0,8431,0,7006,0,8815,0,8960,0,8171,0,8299,0,109,0,9018,0,0,0,8514,0,7766,0,7819,0
1387656271.28959,-11,0,7622,0,9647,0,7957,0,8844,0,8284,0,7025,0,8627,0,8962,0,8102,0,8257,0,110,0,9037,0,0,0,8545,0,7281,0,7675,0
1387656271.297582,-12,0,7463,0,10907,0,7814,0,9197,0,8160,0,7042,0,8448,0,8901,0,8018,0,8225,0,111,0,9047,0,0,0,8474,0,7150,0,7464,0
1387656271.304582,-12,0,7747,0,9974,0,8043,0,8924,0,8402,0,7111,0,8548,0,8948,0,8207,0,8343,0,112,0,9004,0,0,0,8531,0,7436,0,7747,0
1387656271.31259,-13,0,8150,0,7983,0,8349,0,8460,0,8709,0,7174,0,8780,0,9050,0,8448,0,8487,0,113,0,8927,0,0,0,8647,0,7683,0,8166,0
1387656271.320602,-12,0,8119,0,7851,0,8353,0,8569,0,8684,0,7176,0,8819,0,9062,0,8402,0,8489,0,114,0,8937,0,0,0,8623,0,7667,0,8134,0
1387656271.328593,-12,0,7949,0,8703,0,8254,0,8811,0,8566,0,7175,0,8767,0,9045,0,8282,0,8471,0,115,0,9005,0,0,0,8579,0,7613,0,7980,0
1387656271.336585,-11,0,8007,0,8584,0,8295,0,8691,0,8622,0,7195,0,8818,0,9062,0,8316,0,8502,0,116,0,9001,0,0,0,8600,0,7646,0,8052,0
1387656271.343583,-11,0,8088,0,8304,0,8355,0,8583,0,8698,0,7218,0,8865,0,9077,0,8366,0,8519,0,117,0,8963,0,0,0,8600,0,7700,0,8131,0
1387656271.351596,-11,0,8081,0,8484,0,8350,0,8637,0,8700,0,7233,0,8862,0,9094,0,8364,0,8517,0,118,0,8968,0,0,0,8593,0,7698,0,8117,0
1387656271.359586,-12,0,8081,0,8521,0,8343,0,8628,0,8691,0,7224,0,8870,0,9113,0,8370,0,8504,0,119,0,8977,0,0,0,8602,0,7702,0,8115,0
1387656271.36759,-14,0,8107,0,8456,0,8353,0,8601,0,8693,0,7217,0,8886,0,9114,0,8382,0,8519,0,120,0,8970,0,0,0,8609,0,7712,0,8139,0
1387656271.375582,-15,0,8131,0,8482,0,8363,0,8620,0,8696,0,7229,0,8897,0,9115,0,8391,0,8550,0,121,0,8972,0,0,0,8622,0,7709,0,8156,0
1387656271.383594,-14,0,8123,0,8506,0,8362,0,8634,0,8693,0,7234,0,8909,0,9126,0,8390,0,8550,0,122,0,8973,0,0,0,8614,0,7729,0,8145,0
1387656271.390613,-12,0,8099,0,8501,0,8356,0,8635,0,8693,0,7225,0,8926,0,9135,0,8368,0,8545,0,123,0,8974,0,0,0,8606,0,7747,0,8126,0
1387656271.398606,-10,0,8076,0,8509,0,8371,0,8638,0,8679,0,7219,0,8941,0,9134,0,8344,0,8554,0,124,0,8984,0,0,0,8634,0,7738,0,8111,0
1387656271.408336,-8,0,8061,0,8511,0,8388,0,8644,0,8654,0,7222,0,8949,0,9124,0,8335,0,8558,0,125,0,8984,0,0,0,8622,0,7738,0,8107,0
1387656271.414647,-7,0,8062,0,8498,0,8388,0,8648,0,8651,0,7219,0,8945,0,9125,0,8331,0,8558,0,126,0,8978,0,-1,0,8574,0,7749,0,8121,0
1387656271.42259,-6,0,8069,0,8510,0,8380,0,8649,0,8660,0,7220,0,8937,0,9131,0,8335,0,8561,0,127,0,8981,0,-1,0,8589,0,7732,0,8133,0
1387656271.429594,-6,0,8073,0,8537,0,8363,0,8642,0,8666,0,7237,0,8935,0,9126,0,8355,0,8557,0,242,0,8977,0,-1,0,8633,0,7707,0,8133,0
1387656271.437577,-5,0,8084,0,8534,0,8346,0,8639,0,8667,0,7246,0,8935,0,9126,0,8371,0,8551,0,242,0,8971,0,-1,0,8637,0,7718,0,8132,0
1387656271.445594,-5,0,8096,0,8511,0,8347,0,8648,0,8664,0,7236,0,8932,0,9135,0,8367,0,8555,0,242,0,8981,0,-1,0,8646,0,7743,0,8137,0
1387656271.453593,-5,0,8079,0,8490,0,8351,0,8648,0,8658,0,7233,0,8941,0,9133,0,8355,0,8558,0,242,0,8993,0,-1,0,8660,0,7742,0,8134,0
1387656271.461593,-4,0,8046,0,8483,0,8344,0,8644,0,8660,0,7241,0,8967,0,9126,0,8343,0,8562,0,242,0,8997,0,-1,0,8647,0,7741,0,8125,0
1387656271.469579,-4,0,8034,0,8481,0,8348,0,8646,0,8669,0,7237,0,8978,0,9129,0,8339,0,8562,0,242,0,8992,0,-1,0,8635,0,7754,0,8114,0
1387656271.476585,-4,0,8033,0,8478,0,8361,0,8647,0,8669,0,7227,0,8972,0,9131,0,8337,0,8561,0,242,0,8986,0,-1,0,8633,0,7764,0,8110,0
1387656271.484566,-5,0,8023,0,8477,0,8359,0,8643,0,8660,0,7228,0,8979,0,9125,0,8326,0,8559,0,242,0,8988,0,-1,0,8631,0,7769,0,8103,0
1387656271.492584,-5,0,8019,0,8488,0,8359,0,8647,0,8658,0,7235,0,8984,0,9126,0,8316,0,8558,0,242,0,8987,0,-1,0,8639,0,7776,0,8091,0
1387656271.500589,-6,0,8028,0,8498,0,8372,0,8653,0,8667,0,7235,0,8978,0,9130,0,8315,0,8558,0,242,0,8987,0,-1,0,8639,0,7778,0,8093,0
1387656271.50859,-6,0,8031,0,8494,0,8374,0,8656,0,8670,0,7230,0,8985,0,9131,0,8320,0,8561,0,242,0,8999,0,-1,0,8636,0,7775,0,8096,0
1387656271.515593,-5,0,8031,0,8486,0,8363,0,8658,0,8664,0,7227,0,8995,0,9130,0,8321,0,8561,0,242,0,9002,0,-2,0,8643,0,7778,0,8080,0
1387656271.523573,-4,0,8032,0,8480,0,8368,0,8656,0,8662,0,7224,0,8998,0,9124,0,8311,0,8551,0,242,0,8986,0,-2,0,8644,0,7776,0,8065,0
1387656271.53161,-3,0,8021,0,8475,0,8379,0,8651,0,8660,0,7223,0,8999,0,9123,0,8313,0,8549,0,242,0,8986,0,-3,0,8640,0,7776,0,8068,0
1387656271.539582,-2,0,8016,0,8463,0,8375,0,8649,0,8659,0,7222,0,9000,0,9131,0,8334,0,8551,0,242,0,8997,0,-3,0,8643,0,7791,0,8074,0
1387656271.547581,-2,0,8027,0,8450,0,8375,0,8652,0,8664,0,7224,0,9002,0,9132,0,8336,0,8539,0,242,0,8994,0,-4,0,8649,0,7791,0,8071,0
1387656271.555591,-2,0,8035,0,8446,0,8379,0,8653,0,8671,0,7224,0,9004,0,9123,0,8327,0,8522,0,242,0,8990,0,-5,0,8645,0,7777,0,8066,0
1387656271.562631,-2,0,8038,0,8455,0,8379,0,8650,0,8672,0,7226,0,9005,0,9118,0,8343,0,8520,0,16,0,8997,0,-5,0,8637,0,7773,0,8065,0
1387656271.570597,-2,0,8052,0,8459,0,8377,0,8647,0,8672,0,7229,0,9004,0,9115,0,8355,0,8516,0,17,0,8999,0,-6,0,8638,0,7773,0,8067,0
1387656271.578604,-1,0,8063,0,8448,0,8360,0,8643,0,8671,0,7222,0,9005,0,9110,0,8344,0,8507,0,18,0,8991,0,-6,0,8638,0,7775,0,8071,0
1387656271.586592,0,0,8061,0,8440,0,8347,0,8641,0,8663,0,7215,0,9015,0,9115,0,8344,0,8508,0,19,0,8993,0,-6,0,8634,0,7781,0,8070,0
1387656271.594595,1,0,8052,0,8445,0,8348,0,8643,0,8657,0,7212,0,9033,0,9119,0,8344,0,8507,0,20,0,9001,0,-7,0,8641,0,7780,0,8066,0
1387656271.601584,2,0,8049,0,8447,0,8350,0,8647,0,8662,0,7206,0,9035,0,9114,0,8335,0,8497,0,21,0,8998,0,-7,0,8650,0,7778,0,8066,0
1387656271.609573,2,0,8052,0,8443,0,8349,0,8648,0,8667,0,7206,0,9030,0,9117,0,8337,0,8490,0,22,0,8993,0,-7,0,8644,0,7782,0,8065,0
1387656271.61759,1,0,8055,0,8445,0,8349,0,8652,0,8669,0,7209,0,9038,0,9122,0,8339,0,8484,0,23,0,8992,0,-8,0,8639,0,7778,0,8061,0
1387656271.625586,1,0,8057,0,8453,0,8349,0,8650,0,8669,0,7208,0,9031,0,9116,0,8340,0,8473,0,24,0,8989,0,-8,0,8638,0,7774,0,8061,0
1387656271.633592,1,0,8062,0,8461,0,8350,0,8640,0,8670,0,7207,0,9014,0,9110,0,8347,0,8469,0,25,0,8991,0,-9,0,8634,0,7775,0,8066,0
1387656271.641279,1,0,8062,0,8461,0,8350,0,8640,0,8670,0,7207,0,9014,0,9110,0,8347,0,8469,0,25,0,8991,0,-9,0,8634,0,7775,0,8066,0
1387656271.648308,1,0,8062,0,8461,0,8354,0,8639,0,8668,0,7205,0,9020,0,9109,0,8346,0,8474,0,26,0,8995,0,-10,0,8633,0,7775,0,8066,0
1387656271.656279,2,0,8059,0,8460,0,8352,0,8644,0,8665,0,7197,0,9030,0,9106,0,8336,0,8475,0,27,0,8993,0,-11,0,8634,0,7779,0,8066,0
1387656271.664289,3,0,8060,0,8462,0,8349,0,8644,0,8664,0,7193,0,9028,0,9105,0,8336,0,8469,0,28,0,8990,0,-11,0,8632,0,7780,0,8065,0
1387656271.672279,4,0,8058,0,8462,0,8348,0,8651,0,8665,0,7198,0,9031,0,9105,0,8335,0,8469,0,29,0,8990,0,-12,0,8629,0,7782,0,8066,0
1387656271.680289,5,0,8056,0,8459,0,8347,0,8663,0,8666,0,7197,0,9033,0,9102,0,8332,0,8462,0,30,0,8988,0,-13,0,8629,0,7778,0,8069,0
1387656271.687283,5,0,8059,0,8468,0,8348,0,8662,0,8669,0,7195,0,9029,0,9101,0,8339,0,8452,0,31,0,8986,0,-13,0,8628,0,7758,0,8064,0
1387656271.695287,4,0,8063,0,8477,0,8345,0,8656,0,8673,0,7197,0,9030,0,9099,0,8343,0,8446,0,32,0,8982,0,-14,0,8623,0,7749,0,8059,0
1387656271.70328,4,0,8062,0,8478,0,8343,0,8660,0,8672,0,7199,0,9026,0,9095,0,8340,0,8447,0,33,0,8983,0,-15,0,8622,0,7762,0,8055,0
1387656271.711288,4,0,8062,0,8477,0,8346,0,8657,0,8669,0,7195,0,9024,0,9095,0,8341,0,8446,0,34,0,8985,0,-15,0,8626,0,7775,0,8049,0
1387656271.719278,4,0,8059,0,8481,0,8349,0,8650,0,8663,0,7192,0,9032,0,9095,0,8340,0,8449,0,35,0,8986,0,-15,0,8624,0,7773,0,8045,0
1387656271.727284,3,0,8053,0,8484,0,8348,0,8653,0,8658,0,7191,0,9034,0,9092,0,8332,0,8457,0,36,0,8988,0,-16,0,8620,0,7773,0,8052,0
1387656271.734286,3,0,8048,0,8475,0,8348,0,8656,0,8658,0,7190,0,9032,0,9090,0,8325,0,8460,0,37,0,8987,0,-16,0,8619,0,7778,0,8053,0
1387656271.742278,3,0,8047,0,8468,0,8347,0,8658,0,8662,0,7190,0,9032,0,9090,0,8328,0,8454,0,38,0,8986,0,-17,0,8619,0,7778,0,8049,0
1387656271.750285,2,0,8051,0,8475,0,8346,0,8668,0,8663,0,7193,0,9034,0,9093,0,8330,0,8451,0,39,0,8983,0,-17,0,8621,0,7776,0,8048,0
1387656271.75828,2,0,8051,0,8483,0,8344,0,8666,0,8665,0,7193,0,9032,0,9096,0,8328,0,8446,0,40,0,8981,0,-18,0,8621,0,7773,0,8046,0
1387656271.766284,1,0,8049,0,8479,0,8344,0,8655,0,8669,0,7193,0,9025,0,9093,0,8334,0,8439,0,41,0,8984,0,-18,0,8620,0,7774,0,8046,0
1387656271.77328,1,0,8057,0,8478,0,8343,0,8655,0,8670,0,7197,0,9023,0,9086,0,8342,0,8439,0,42,0,8987,0,-18,0,8623,0,7774,0,8047,0
1387656271.781285,1,0,8067,0,8483,0,8334,0,8656,0,8670,0,7197,0,9032,0,9086,0,8342,0,8442,0,43,0,8986,0,-17,0,8626,0,7776,0,8052,0
1387656271.789279,2,0,8061,0,8482,0,8332,0,8656,0,8667,0,7191,0,9036,0,9091,0,8344,0,8445,0,44,0,8992,0,-16,0,8622,0,7775,0,8055,0
1387656271.797286,3,0,8052,0,8476,0,8339,0,8656,0,8664,0,7189,0,9036,0,9092,0,8345,0,8438,0,45,0,8998,0,-16,0,8620,0,7773,0,8046,0
1387656271.805307,3,0,8049,0,8475,0,8343,0,8656,0,8667,0,7196,0,9035,0,9093,0,8332,0,8428,0,46,0,8994,0,-15,0,8623,0,7777,0,8038,0
1387656271.813287,4,0,8050,0,8475,0,8338,0,8660,0,8674,0,7197,0,9038,0,9094,0,8327,0,8425,0,47,0,8993,0,-14,0,8624,0,7781,0,8039,0
1387656271.82028,3,0,8054,0,8480,0,8344,0,8662,0,8674,0,7199,0,9039,0,9092,0,8341,0,8427,0,48,0,8992,0,-12,0,8624,0,7777,0,8043,0
1387656271.829285,3,0,8060,0,8483,0,8347,0,8661,0,8674,0,7202,0,9033,0,9091,0,8343,0,8422,0,49,0,8984,0,-12,0,8629,0,7773,0,8046,0
1387656271.836278,3,0,8065,0,8488,0,8330,0,8664,0,8679,0,7201,0,9030,0,9090,0,8341,0,8422,0,50,0,8984,0,-11,0,8629,0,7777,0,8050,0
1387656271.852286,3,0,8068,0,8488,0,8324,0,8661,0,8674,0,7199,0,9035,0,9085,0,8345,0,8426,0,51,0,8996,0,-10,0,8621,0,7780,0,8052,0
1387656271.854277,4,0,8061,0,8487,0,8329,0,8654,0,8666,0,7198,0,9033,0,9083,0,8346,0,8430,0,52,0,8998,0,-9,0,8618,0,7778,0,8049,0
1387656271.860279,3,0,8052,0,8487,0,8322,0,8657,0,8667,0,7188,0,9040,0,9085,0,8341,0,8433,0,53,0,8991,0,-8,0,8622,0,7774,0,8050,0
1387656271.868282,2,0,8051,0,8482,0,8321,0,8658,0,8669,0,7182,0,9049,0,9085,0,8341,0,8431,0,54,0,8997,0,-7,0,8625,0,7775,0,8053,0
1387656271.876277,1,0,8052,0,8476,0,8323,0,8657,0,8671,0,7192,0,9046,0,9087,0,8343,0,8428,0,55,0,8996,0,-6,0,8621,0,7777,0,8051,0
1387656271.883284,1,0,8052,0,8482,0,8321,0,8661,0,8676,0,7200,0,9038,0,9088,0,8340,0,8432,0,56,0,8987,0,-5,0,8616,0,7777,0,8047,0
1387656271.891277,1,0,8055,0,8487,0,8334,0,8661,0,8673,0,7199,0,9040,0,9088,0,8337,0,8437,0,57,0,8988,0,-4,0,8617,0,7776,0,8047,0
1387656271.899283,3,0,8055,0,8484,0,8340,0,8656,0,8669,0,7200,0,9041,0,9082,0,8336,0,8437,0,58,0,8991,0,-4,0,8620,0,7777,0,8046,0
1387656271.906278,5,0,8054,0,8491,0,8316,0,8656,0,8664,0,7197,0,9044,0,9079,0,8336,0,8439,0,59,0,8984,0,-3,0,8619,0,7789,0,8041,0
1387656271.914285,7,0,8055,0,8497,0,8313,0,8655,0,8644,0,7190,0,9053,0,9087,0,8331,0,8440,0,60,0,8979,0,-2,0,8617,0,7798,0,8037,0
1387656271.922284,9,0,8049,0,8490,0,8333,0,8658,0,8627,0,7191,0,9059,0,9092,0,8325,0,8439,0,61,0,8982,0,-1,0,8622,0,7793,0,8038,0
1387656271.930291,10,0,8036,0,8479,0,8331,0,8665,0,8651,0,7193,0,9056,0,9083,0,8328,0,8437,0,62,0,8981,0,0,0,8623,0,7771,0,8040,0
1387656271.93828,10,0,8038,0,8478,0,8319,0,8664,0,8693,0,7196,0,9046,0,9075,0,8338,0,8434,0,63,0,8977,0,1,0,8619,0,7754,0,8045,0
1387656271.94629,10,0,8064,0,8486,0,8317,0,8659,0,8704,0,7201,0,9034,0,9078,0,8346,0,8425,0,63,0,8975,0,2,0,8617,0,7759,0,8051,0
1387656271.95328,11,0,8085,0,8500,0,8314,0,8657,0,8690,0,7204,0,9016,0,9082,0,8351,0,8425,0,63,0,8976,0,3,0,8621,0,7768,0,8053,0
1387656271.961286,12,0,8078,0,8507,0,8314,0,8653,0,8677,0,7199,0,9013,0,9078,0,8350,0,8432,0,63,0,8980,0,4,0,8623,0,7764,0,8052,0
1387656271.969281,14,0,8060,0,8507,0,8315,0,8651,0,8668,0,7196,0,9033,0,9078,0,8334,0,8440,0,63,0,8976,0,5,0,8621,0,7762,0,8052,0
1387656271.977277,16,0,8050,0,8502,0,8315,0,8657,0,8665,0,7196,0,9040,0,9081,0,8322,0,8450,0,63,0,8972,0,6,0,8615,0,7769,0,8056,0
1387656271.985269,18,0,8047,0,8500,0,8314,0,8662,0,8656,0,7196,0,9034,0,9080,0,8329,0,8464,0,63,0,8970,0,6,0,8608,0,7768,0,8050,0
1387656271.992279,19,0,8050,0,8500,0,8318,0,8660,0,8645,0,7193,0,9034,0,9074,0,8332,0,8465,0,63,0,8972,0,7,0,8607,0,7765,0,8045,0
1387656272.000286,20,0,8053,0,8498,0,8320,0,8659,0,8648,0,7193,0,9039,0,9072,0,8326,0,8457,0,63,0,8972,0,7,0,8612,0,7766,0,8047,0
1387656272.009008,21,0,8055,0,8504,0,8318,0,8663,0,8666,0,7197,0,9035,0,9069,0,8331,0,8461,0,63,0,8974,0,8,0,8613,0,7762,0,8049,0
1387656272.016297,21,0,8056,0,8515,0,8314,0,8664,0,8678,0,7197,0,9025,0,9060,0,8336,0,8466,0,63,0,8975,0,8,0,8605,0,7753,0,8050,0
1387656272.024281,21,0,8057,0,8516,0,8312,0,8659,0,8677,0,7192,0,9018,0,9054,0,8335,0,8465,0,63,0,8970,0,8,0,8601,0,7744,0,8053,0
1387656272.032287,20,0,8058,0,8512,0,8313,0,8662,0,8671,0,7193,0,9024,0,9057,0,8336,0,8474,0,63,0,8971,0,8,0,8600,0,7745,0,8057,0
1387656272.039281,19,0,8053,0,8522,0,8310,0,8668,0,8662,0,7195,0,9028,0,9060,0,8336,0,8491,0,63,0,8977,0,8,0,8596,0,7751,0,8051,0
1387656272.047283,18,0,8047,0,8534,0,8303,0,8666,0,8649,0,7189,0,9028,0,9055,0,8335,0,8494,0,63,0,8981,0,8,0,8592,0,7752,0,8048,0
1387656272.055279,17,0,8040,0,8534,0,8307,0,8666,0,8640,0,7182,0,9033,0,9048,0,8329,0,8501,0,63,0,8981,0,7,0,8589,0,7752,0,8050,0
1387656272.063289,16,0,8031,0,8527,0,8313,0,8673,0,8643,0,7179,0,9034,0,9050,0,8320,0,8520,0,63,0,8980,0,7,0,8585,0,7752,0,8042,0
1387656272.071282,14,0,8025,0,8534,0,8312,0,8675,0,8641,0,7178,0,9031,0,9053,0,8314,0,8535,0,63,0,8982,0,7,0,8587,0,7753,0,8036,0
1387656272.078283,13,0,8028,0,8543,0,8312,0,8675,0,8627,0,7174,0,9030,0,9051,0,8312,0,8541,0,81,0,8980,0,7,0,8592,0,7760,0,8036,0
1387656272.086281,10,0,8029,0,8543,0,8319,0,8678,0,8623,0,7172,0,9026,0,9049,0,8314,0,8540,0,82,0,8977,0,6,0,8589,0,7761,0,8034,0
1387656272.094284,8,0,8026,0,8549,0,8319,0,8675,0,8634,0,7175,0,9023,0,9050,0,8317,0,8540,0,83,0,8978,0,5,0,8587,0,7749,0,8028,0
1387656272.102281,6,0,8026,0,8562,0,8314,0,8675,0,8643,0,7179,0,9018,0,9050,0,8318,0,8538,0,84,0,8977,0,4,0,8588,0,7743,0,8029,0
1387656272.110279,4,0,8030,0,8568,0,8315,0,8684,0,8645,0,7178,0,9015,0,9050,0,8319,0,8538,0,85,0,8971,0,4,0,8584,0,7749,0,8035,0
1387656272.118281,2,0,8038,0,8566,0,8317,0,8690,0,8643,0,7171,0,9028,0,9051,0,8324,0,8545,0,86,0,8974,0,4,0,8581,0,7750,0,8033,0
1387656272.125278,2,0,8040,0,8572,0,8321,0,8689,0,8640,0,7163,0,9037,0,9049,0,8324,0,8560,0,87,0,8981,0,3,0,8580,0,7747,0,8025,0
1387656272.133285,2,0,8026,0,8575,0,8333,0,8685,0,8634,0,7155,0,9034,0,9047,0,8316,0,8564,0,88,0,8980,0,3,0,8579,0,7757,0,8020,0
1387656272.141278,3,0,8016,0,8581,0,8346,0,8684,0,8617,0,7157,0,9035,0,9050,0,8303,0,8562,0,89,0,8981,0,3,0,8582,0,7767,0,8020,0
1387656272.149286,3,0,8021,0,8593,0,8342,0,8678,0,8611,0,7166,0,9030,0,9047,0,8303,0,8555,0,90,0,8980,0,2,0,8588,0,7763,0,8018,0
1387656272.157277,3,0,8026,0,8606,0,8320,0,8669,0,8634,0,7179,0,9010,0,9040,0,8317,0,8538,0,91,0,8973,0,1,0,8586,0,7750,0,8023,0
1387656272.164288,2,0,8032,0,8623,0,8296,0,8666,0,8661,0,7198,0,8999,0,9044,0,8321,0,8521,0,92,0,8971,0,1,0,8581,0,7737,0,8029,0
1387656272.172282,0,0,8043,0,8646,0,8284,0,8667,0,8669,0,7208,0,8999,0,9052,0,8320,0,8509,0,93,0,8975,0,0,0,8585,0,7728,0,8024,0
1387656272.180284,-3,0,8053,0,8667,0,8285,0,8663,0,8667,0,7203,0,8996,0,9047,0,8332,0,8502,0,94,0,8974,0,0,0,8589,0,7725,0,8026,0
1387656272.188279,-6,0,8047,0,8669,0,8284,0,8664,0,8668,0,7200,0,8998,0,9042,0,8333,0,8508,0,95,0,8971,0,-1,0,8586,0,7723,0,8032,0
1387656272.196285,-8,0,8033,0,8665,0,8282,0,8675,0,8670,0,7202,0,9002,0,9047,0,8328,0,8525,0,96,0,8975,0,-1,0,8584,0,7729,0,8026,0
1387656272.204279,-9,0,8020,0,8671,0,8295,0,8680,0,8659,0,7185,0,9005,0,9051,0,8328,0,8554,0,97,0,8979,0,-1,0,8585,0,7744,0,8016,0
1387656272.211286,-9,0,8008,0,8667,0,8315,0,8690,0,8631,0,7160,0,9012,0,9047,0,8318,0,8610,0,98,0,8978,0,-2,0,8581,0,7754,0,8012,0
1387656272.219279,-8,0,7993,0,8635,0,8322,0,8701,0,8601,0,7147,0,9021,0,9051,0,8294,0,8690,0,99,0,8985,0,-2,0,8576,0,7758,0,7998,0
1387656272.22741,-6,0,7990,0,8602,0,8325,0,8691,0,8589,0,7145,0,9029,0,9058,0,8288,0,8731,0,100,0,8991,0,-2,0,8581,0,7766,0,7983,0
1387656272.23528,-4,0,8004,0,8600,0,8329,0,8681,0,8611,0,7148,0,9027,0,9055,0,8301,0,8648,0,101,0,8985,0,-2,0,8589,0,7770,0,8011,0
1387656272.243279,-3,0,8027,0,8617,0,8314,0,8681,0,8656,0,7170,0,9011,0,9053,0,8321,0,8472,0,102,0,8979,0,-2,0,8588,0,7756,0,8047,0
1387656272.250281,-2,0,8058,0,8659,0,8290,0,8679,0,8685,0,7197,0,8996,0,9056,0,8350,0,8353,0,103,0,8976,0,-2,0,8586,0,7732,0,8050,0
1387656272.258278,-1,0,8080,0,8722,0,8276,0,8680,0,8682,0,7205,0,8984,0,9055,0,8360,0,8339,0,104,0,8969,0,-2,0,8591,0,7716,0,8039,0
1387656272.266286,-1,0,8072,0,8775,0,8269,0,8684,0,8676,0,7204,0,8972,0,9052,0,8348,0,8351,0,105,0,8967,0,-2,0,8592,0,7717,0,8039,0
1387656272.274281,-1,0,8055,0,8795,0,8273,0,8685,0,8676,0,7205,0,8973,0,9053,0,8343,0,8359,0,106,0,8972,0,-2,0,8589,0,7727,0,8042,0
1387656272.282286,-1,0,8045,0,8798,0,8279,0,8688,0,8662,0,7196,0,8992,0,9047,0,8344,0,8388,0,107,0,8974,0,-1,0,8586,0,7735,0,8039,0
1387656272.29028,-1,0,8025,0,8843,0,8279,0,8691,0,8639,0,7181,0,9007,0,9044,0,8330,0,8426,0,108,0,8978,0,-1,0,8583,0,7736,0,8024,0
1387656272.297284,0,0,8006,0,8900,0,8279,0,8695,0,8632,0,7175,0,9000,0,9047,0,8313,0,8447,0,109,0,8977,0,-1,0,8576,0,7736,0,8008,0
1387656272.305278,0,0,7999,0,8978,0,8284,0,8704,0,8628,0,7170,0,8983,0,9038,0,8308,0,8435,0,110,0,8974,0,0,0,8567,0,7735,0,8003,0
1387656272.313284,0,0,7978,0,9304,0,8262,0,8705,0,8606,0,7155,0,8965,0,9018,0,8298,0,8390,0,111,0,8973,0,0,0,8546,0,7708,0,7972,0
1387656272.321278,1,0,7950,0,9682,0,8223,0,8703,0,8591,0,7156,0,8949,0,9001,0,8286,0,8361,0,112,0,8969,0,0,0,8525,0,7682,0,7939,0
1387656272.329284,1,0,7937,0,9774,0,8214,0,8721,0,8598,0,7174,0,8934,0,8995,0,8278,0,8350,0,113,0,8968,0,0,0,8523,0,7675,0,7936,0
1387656272.33728,0,0,7931,0,9859,0,8213,0,8747,0,8614,0,7168,0,8915,0,8986,0,8269,0,8319,0,114,0,8969,0,0,0,8523,0,7653,0,7923,0
1387656272.344261,-1,0,7944,0,9900,0,8216,0,8741,0,8638,0,7142,0,8904,0,8987,0,8281,0,8315,0,115,0,8963,0,0,0,8522,0,7648,0,7927,0
1387656272.35228,-1,0,7988,0,9458,0,8248,0,8704,0,8659,0,7136,0,8925,0,9009,0,8318,0,8382,0,116,0,8958,0,0,0,8550,0,7698,0,7983,0
1387656272.360379,0,0,8035,0,8826,0,8291,0,8678,0,8667,0,7131,0,8961,0,9035,0,8344,0,8476,0,117,0,8970,0,0,0,8594,0,7747,0,8031,0
1387656272.368281,1,0,8049,0,8649,0,8302,0,8685,0,8666,0,7100,0,8970,0,9046,0,8341,0,8552,0,118,0,8975,0,-1,0,8594,0,7743,0,8028,0
1387656272.376278,0,0,8043,0,8672,0,8302,0,8705,0,8659,0,7091,0,8971,0,9046,0,8342,0,8595,0,119,0,8966,0,-1,0,8581,0,7734,0,8030,0
1387656272.383285,-1,0,8063,0,8255,0,8325,0,8717,0,8666,0,7133,0,8994,0,9057,0,8362,0,8611,0,120,0,8978,0,0,0,8610,0,7767,0,8069,0
1387656272.391279,-1,0,8106,0,7726,0,8353,0,8725,0,8700,0,7172,0,9015,0,9080,0,8381,0,8613,0,121,0,8999,0,-1,0,8643,0,7802,0,8104,0
1387656272.398436,-1,0,8176,0,7046,0,8394,0,8738,0,8772,0,7243,0,9044,0,9129,0,8421,0,8629,0,122,0,9011,0,-1,0,8684,0,7842,0,8163,0
1387656272.407279,-2,0,8281,0,5860,0,8462,0,8732,0,8863,0,7386,0,9110,0,9198,0,8493,0,8688,0,123,0,9030,0,-1,0,8766,0,7917,0,8261,0
1387656272.41529,-3,0,8338,0,5182,0,8508,0,8702,0,8889,0,7462,0,9168,0,9230,0,8524,0,8733,0,124,0,9051,0,-1,0,8810,0,7957,0,8311,0
1387656272.423279,-3,0,8323,0,5391,0,8525,0,8698,0,8869,0,7424,0,9191,0,9226,0,8494,0,8680,0,125,0,9060,0,-1,0,8801,0,7954,0,8296,0
1387656272.430284,-3,0,8273,0,5932,0,8506,0,8712,0,8853,0,7388,0,9191,0,9219,0,8461,0,8563,0,126,0,9060,0,-2,0,8783,0,7939,0,8250,0
1387656272.438279,-2,0,8140,0,7453,0,8387,0,8685,0,8766,0,7337,0,9122,0,9160,0,8389,0,8432,0,127,0,9037,0,-2,0,8698,0,7827,0,8111,0
1387656272.446284,-2,0,7970,0,9677,0,8229,0,8642,0,8621,0,7210,0,9003,0,9050,0,8281,0,8293,0,242,0,8988,0,-2,0,8562,0,7660,0,7933,0
1387656272.454287,-2,0,7928,0,10500,0,8185,0,8644,0,8571,0,7123,0,8947,0,8998,0,8247,0,8211,0,242,0,8962,0,-2,0,8522,0,7621,0,7887,0
1387656272.462284,-3,0,7979,0,9944,0,8219,0,8653,0,8618,0,7139,0,8945,0,9017,0,8283,0,8230,0,242,0,8968,0,-2,0,8563,0,7669,0,7941,0
1387656272.46928,-4,0,7993,0,9575,0,8231,0,8635,0,8646,0,7170,0,8935,0,9031,0,8303,0,8293,0,242,0,8970,0,-2,0,8579,0,7676,0,7977,0
1387656272.477288,-4,0,8010,0,9251,0,8243,0,8624,0,8664,0,7186,0,8946,0,9039,0,8319,0,8351,0,242,0,8964,0,-2,0,8592,0,7690,0,8005,0
1387656272.485276,-3,0,8058,0,8822,0,8254,0,8639,0,8684,0,7200,0,8973,0,9054,0,8340,0,8410,0,242,0,8970,0,-2,0,8616,0,7727,0,8030,0
1387656272.493277,-2,0,8081,0,8617,0,8255,0,8657,0,8688,0,7211,0,8975,0,9064,0,8346,0,8464,0,242,0,8987,0,-2,0,8623,0,7740,0,8049,0
1387656272.501287,-2,0,8080,0,8537,0,8263,0,8665,0,8690,0,7222,0,8970,0,9069,0,8354,0,8480,0,242,0,8996,0,-2,0,8624,0,7737,0,8064,0
1387656272.509279,4,0,8083,0,8417,0,8253,0,8667,0,8708,0,7231,0,8973,0,9075,0,8364,0,8534,0,242,0,8995,0,-1,0,8634,0,7729,0,8059,0
1387656272.516287,6,0,8058,0,8176,0,8216,0,8653,0,8708,0,7226,0,8958,0,9058,0,8347,0,8801,0,242,0,8995,0,-2,0,8617,0,7701,0,8012,0
1387656272.524279,-2,0,8068,0,8058,0,8228,0,8648,0,8723,0,7241,0,8949,0,9046,0,8359,0,8589,0,242,0,9012,0,-2,0,8615,0,7714,0,8017,0
1387656272.532286,-6,0,8237,0,8197,0,8353,0,8691,0,8846,0,7303,0,9043,0,9120,0,8458,0,7995,0,242,0,9050,0,-1,0,8729,0,7848,0,8184,0
1387656272.540279,-3,0,8107,0,8140,0,8239,0,8614,0,8712,0,7233,0,9001,0,9069,0,8349,0,8697,0,242,0,9031,0,-2,0,8655,0,7723,0,8030,0
1387656272.548285,0,0,8020,0,8361,0,8171,0,8580,0,8640,0,7235,0,8936,0,9002,0,8301,0,8436,0,242,0,9021,0,-2,0,8600,0,7671,0,7946,0
1387656272.555284,0,0,8992,0,9209,0,8970,0,8961,0,9448,0,7650,0,9506,0,9482,0,8944,0,4185,0,242,0,9195,0,-2,0,9257,0,8536,0,8992,0
1387656272.563285,1,0,9680,0,9755,0,9587,0,9188,0,9975,0,7871,0,10104,0,9952,0,9339,0,1098,0,242,0,9336,0,-2,0,9730,0,9121,0,9727,0
1387656272.57128,2,0,8714,0,9872,0,8893,0,8783,0,9155,0,7500,0,9743,0,9590,0,8689,0,3827,0,242,0,9229,0,-2,0,9109,0,8299,0,8718,0
1387656272.579283,1,0,7833,0,9310,0,8202,0,8461,0,8495,0,7235,0,9176,0,9084,0,8185,0,7619,0,16,0,9105,0,-2,0,8536,0,7574,0,7774,0
1387656272.587279,0,0,8154,0,8080,0,8377,0,8589,0,8820,0,7347,0,9204,0,9120,0,8402,0,8465,0,17,0,9088,0,-2,0,8720,0,7820,0,8044,0
1387656272.595286,-1,0,8324,0,8094,0,8371,0,8689,0,8919,0,7347,0,9244,0,9187,0,8425,0,8131,0,18,0,9037,0,-2,0,8796,0,7888,0,8183,0
1387656272.60228,-2,0,8009,0,9805,0,8051,0,8684,0,8599,0,7204,0,9070,0,9040,0,8212,0,7872,0,19,0,8982,0,-2,0,8595,0,7620,0,7884,0
1387656272.610433,-2,0,7931,0,10642,0,8090,0,8718,0,8541,0,7149,0,9026,0,8974,0,8238,0,8039,0,20,0,8985,0,-1,0,8554,0,7634,0,7841,0
1387656272.618288,-2,0,7975,0,9675,0,8229,0,8704,0,8605,0,7165,0,9026,0,8984,0,8282,0,8683,0,21,0,8972,0,-1,0,8561,0,7692,0,7906,0
1387656272.626279,-2,0,8036,0,8730,0,8266,0,8716,0,8654,0,7227,0,9043,0,9038,0,8293,0,8807,0,22,0,8988,0,-1,0,8614,0,7705,0,7986,0
1387656272.634287,-3,0,8023,0,8494,0,8226,0,8702,0,8627,0,7203,0,9049,0,9056,0,8289,0,9294,0,23,0,9045,0,-2,0,8637,0,7690,0,7968,0
1387656272.643729,-3,0,7728,0,8585,0,7997,0,8573,0,8402,0,7122,0,8824,0,8877,0,8115,0,12485,0,25,0,8992,0,-2,0,8425,0,7450,0,7666,0
1387656272.649594,-4,0,7768,0,8512,0,8029,0,8632,0,8439,0,7151,0,8833,0,8882,0,8131,0,12056,0,26,0,8938,0,-2,0,8428,0,7452,0,7718,0
1387656272.657582,-4,0,7812,0,8767,0,8068,0,8651,0,8472,0,7125,0,8852,0,8894,0,8169,0,11289,0,27,0,8911,0,-2,0,8417,0,7496,0,7775,0
1387656272.665596,-4,0,7814,0,9080,0,8066,0,8647,0,8473,0,7113,0,8838,0,8889,0,8185,0,10918,0,28,0,8897,0,-2,0,8394,0,7522,0,7800,0
1387656272.673591,-3,0,7855,0,9117,0,8099,0,8657,0,8509,0,7135,0,8848,0,8908,0,8213,0,10390,0,29,0,8910,0,-2,0,8430,0,7565,0,7850,0
1387656272.681587,-1,0,7932,0,8858,0,8164,0,8659,0,8569,0,7159,0,8882,0,8956,0,8258,0,9817,0,30,0,8934,0,-1,0,8494,0,7632,0,7912,0
1387656272.689587,0,0,7987,0,8589,0,8197,0,8652,0,8609,0,7183,0,8903,0,8989,0,8295,0,9543,0,31,0,8945,0,-1,0,8534,0,7676,0,7959,0
1387656272.697583,1,0,8022,0,8458,0,8208,0,8667,0,8640,0,7212,0,8925,0,9008,0,8324,0,9337,0,32,0,8961,0,0,0,8562,0,7697,0,8002,0
1387656272.704589,2,0,8059,0,8282,0,8220,0,8689,0,8668,0,7235,0,8955,0,9023,0,8352,0,9138,0,33,0,8976,0,0,0,8582,0,7726,0,8030,0
1387656272.712587,3,0,8092,0,8110,0,8245,0,8693,0,8691,0,7252,0,8976,0,9040,0,8370,0,8990,0,34,0,8978,0,0,0,8592,0,7741,0,8048,0
1387656272.720571,3,0,8109,0,8054,0,8279,0,8698,0,8711,0,7265,0,8994,0,9053,0,8376,0,8852,0,35,0,8984,0,0,0,8601,0,7733,0,8070,0
1387656272.727606,3,0,8105,0,8143,0,8286,0,8705,0,8716,0,7261,0,9011,0,9056,0,8369,0,8743,0,36,0,8983,0,0,0,8604,0,7745,0,8083,0
1387656272.735588,3,0,8079,0,8396,0,8257,0,8697,0,8686,0,7222,0,9007,0,9049,0,8338,0,8793,0,37,0,8972,0,0,0,8595,0,7751,0,8054,0
1387656272.743588,3,0,8026,0,8642,0,8230,0,8688,0,8637,0,7172,0,8981,0,9027,0,8302,0,9043,0,38,0,8969,0,0,0,8576,0,7713,0,7995,0
1387656272.759589,4,0,7977,0,8682,0,8228,0,8680,0,8612,0,7148,0,8964,0,9005,0,8289,0,9291,0,39,0,8958,0,-1,0,8550,0,7680,0,7960,0
1387656272.761596,6,0,7973,0,8606,0,8233,0,8657,0,8610,0,7138,0,8967,0,8996,0,8291,0,9380,0,40,0,8935,0,-1,0,8519,0,7677,0,7961,0
1387656272.767592,7,0,7984,0,8537,0,8240,0,8631,0,8611,0,7127,0,8970,0,9004,0,8291,0,9354,0,41,0,8930,0,-1,0,8515,0,7674,0,7979,0
1387656272.774598,7,0,7990,0,8445,0,8255,0,8637,0,8620,0,7136,0,8966,0,9012,0,8301,0,9259,0,42,0,8938,0,-1,0,8548,0,7676,0,8004,0
1387656272.782601,8,0,8006,0,8315,0,8274,0,8670,0,8642,0,7153,0,8972,0,9019,0,8316,0,9114,0,43,0,8938,0,-1,0,8584,0,7694,0,8025,0
1387656272.790596,7,0,8036,0,8037,0,8298,0,8687,0,8664,0,7173,0,8996,0,9039,0,8331,0,8996,0,44,0,8938,0,-1,0,8602,0,7724,0,8052,0
1387656272.798603,6,0,8080,0,7568,0,8341,0,8686,0,8693,0,7197,0,9035,0,9071,0,8353,0,8918,0,45,0,8953,0,-1,0,8620,0,7771,0,8105,0
1387656272.806592,3,0,8133,0,7203,0,8390,0,8678,0,8727,0,7181,0,9067,0,9100,0,8379,0,8819,0,46,0,8973,0,-1,0,8646,0,7814,0,8163,0
1387656272.814598,0,0,8153,0,7184,0,8397,0,8650,0,8731,0,7150,0,9084,0,9115,0,8383,0,8730,0,47,0,8984,0,0,0,8664,0,7833,0,8185,0
